%OpenBCI Raw EEG Data
%
%Sample Rate = 250.0 Hz
%First Column = SampleIndex
%Last Column = Timestamp 
%Other Columns = EEG data in microvolts followed by Accel Data (in G) interleaved with Aux Data
0, 8315.47, -187500.02, -187500.02, -107876.00, -179604.69, -73047.94, -187500.02, -125490.31, 0.01, -0.27, 0.42, 10:46:31.479
1, 8086.15, -187500.02, -187500.02, -107840.95, -179571.97, -73012.17, -187500.02, -125465.45, 0.00, 0.00, 0.00, 10:46:31.481
2, 8127.70, -187500.02, -187500.02, -107843.90, -179576.17, -73013.89, -187500.02, -125469.21, 0.00, 0.00, 0.00, 10:46:31.485
3, 8263.19, -187500.02, -187500.02, -107843.14, -179574.16, -73009.96, -187500.02, -125465.12, 0.00, 0.00, 0.00, 10:46:31.489
4, 8300.75, -187500.02, -187500.02, -107857.34, -179586.97, -73021.25, -187500.02, -125477.46, 0.00, 0.00, 0.00, 10:46:31.493
5, 8207.18, -187500.02, -187500.02, -107914.58, -179643.28, -73077.06, -187500.02, -125535.75, 0.00, 0.00, 0.00, 10:46:31.498
6, 8093.12, -187500.02, -187500.02, -107905.16, -179630.19, -73064.05, -187500.02, -125532.58, 0.00, 0.00, 0.00, 10:46:31.502
7, 8162.81, -187500.02, -187500.02, -107853.94, -179576.48, -73010.92, -187500.02, -125487.30, 0.03, -0.52, 0.85, 10:46:31.505
8, 8265.54, -187500.02, -187500.02, -107848.37, -179569.42, -73002.49, -187500.02, -125480.45, 0.00, 0.00, 0.00, 10:46:31.509
9, 8213.39, -187500.02, -187500.02, -107884.31, -179604.58, -73038.37, -187500.02, -125514.80, 0.00, 0.00, 0.00, 10:46:31.513
10, 8176.25, -187500.02, -187500.02, -107910.55, -179633.45, -73065.88, -187500.02, -125540.06, 0.00, 0.00, 0.00, 10:46:31.519
11, 8313.31, -187500.02, -187500.02, -107943.86, -179668.39, -73098.16, -187500.02, -125572.07, 0.00, 0.00, 0.00, 10:46:31.522
12, 8309.93, -187500.02, -187500.02, -107925.98, -179649.95, -73079.98, -187500.02, -125562.91, 0.00, 0.00, 0.00, 10:46:31.526
13, 8158.03, -187500.02, -187500.02, -107913.16, -179636.72, -73066.51, -187500.02, -125560.98, 0.00, 0.00, 0.00, 10:46:31.531
14, 8050.11, -187500.02, -187500.02, -107911.38, -179631.63, -73061.57, -187500.02, -125557.48, 0.00, 0.00, 0.00, 10:46:31.533
15, 8173.65, -187500.02, -187500.02, -107913.33, -179629.70, -73058.91, -187500.02, -125552.60, 0.00, 0.00, 0.00, 10:46:31.537
16, 8331.03, -187500.02, -187500.02, -107940.86, -179655.69, -73082.63, -187500.02, -125573.95, 0.02, -0.53, 0.84, 10:46:31.541
17, 8272.07, -187500.02, -187500.02, -107972.69, -179687.98, -73113.52, -187500.02, -125606.09, 0.00, 0.00, 0.00, 10:46:31.545
18, 8060.51, -187500.02, -187500.02, -107965.54, -179681.23, -73106.72, -187500.02, -125609.00, 0.00, 0.00, 0.00, 10:46:31.550
19, 8069.74, -187500.02, -187500.02, -107927.07, -179644.03, -73069.39, -187500.02, -125579.45, 0.00, 0.00, 0.00, 10:46:31.553
20, 8226.36, -187500.02, -187500.02, -107916.25, -179631.22, -73057.08, -187500.02, -125569.15, 0.00, 0.00, 0.00, 10:46:31.559
21, 8224.15, -187500.02, -187500.02, -107929.02, -179643.89, -73068.50, -187500.02, -125583.48, 0.00, 0.00, 0.00, 10:46:31.561
22, 8188.36, -187500.02, -187500.02, -107999.70, -179714.70, -73137.79, -187500.02, -125657.21, 0.00, 0.00, 0.00, 10:46:31.565
23, 8162.03, -187500.02, -187500.02, -108013.59, -179724.94, -73146.30, -187500.02, -125676.27, 0.00, 0.00, 0.00, 10:46:31.569
24, 8236.44, -187500.02, -187500.02, -107971.44, -179680.13, -73100.57, -187500.02, -125639.15, 0.00, 0.00, 0.00, 10:46:31.573
25, 8255.42, -187500.02, -187500.02, -107995.11, -179701.98, -73122.32, -187500.02, -125661.37, 0.00, 0.00, 0.00, 10:46:31.577
26, 8124.30, -187500.02, -187500.02, -108013.98, -179719.94, -73139.17, -187500.02, -125676.37, 0.02, -0.54, 0.84, 10:46:31.582
27, 8136.06, -187500.02, -187500.02, -108031.14, -179738.08, -73153.95, -187500.02, -125692.21, 0.00, 0.00, 0.00, 10:46:31.585
28, 8245.13, -187500.02, -187500.02, -108020.92, -179726.66, -73141.50, -187500.02, -125686.02, 0.00, 0.00, 0.00, 10:46:31.588
29, 8222.02, -187500.02, -187500.02, -108010.42, -179714.23, -73128.45, -187500.02, -125686.98, 0.00, 0.00, 0.00, 10:46:31.593
30, 8030.51, -187500.02, -187500.02, -107980.36, -179682.25, -73096.37, -187500.02, -125662.82, 0.00, 0.00, 0.00, 10:46:31.597
31, 8042.49, -187500.02, -187500.02, -107987.98, -179689.02, -73101.98, -187500.02, -125667.36, 0.00, 0.00, 0.00, 10:46:31.601
32, 8227.99, -187500.02, -187500.02, -107993.59, -179693.25, -73105.06, -187500.02, -125670.63, 0.00, 0.00, 0.00, 10:46:31.606
33, 8350.14, -187500.02, -187500.02, -108033.51, -179732.05, -73143.16, -187500.02, -125709.83, 0.00, 0.00, 0.00, 10:46:31.610
34, 8246.50, -187500.02, -187500.02, -108081.84, -179779.67, -73188.82, -187500.02, -125763.00, 0.00, 0.00, 0.00, 10:46:31.613
35, 8134.43, -187500.02, -187500.02, -108116.52, -179810.86, -73217.34, -187500.02, -125805.20, 0.00, 0.00, 0.00, 10:46:31.617
36, 8188.92, -187500.02, -187500.02, -108093.66, -179785.48, -73192.33, -187500.02, -125784.91, 0.03, -0.54, 0.85, 10:46:31.620
37, 8277.99, -187500.02, -187500.02, -108086.04, -179777.59, -73183.50, -187500.02, -125773.42, 0.00, 0.00, 0.00, 10:46:31.625
38, 8213.93, -187500.02, -187500.02, -108109.30, -179801.88, -73205.78, -187500.02, -125797.49, 0.00, 0.00, 0.00, 10:46:31.629
39, 8096.20, -187500.02, -187500.02, -108113.30, -179805.98, -73209.00, -187500.02, -125800.73, 0.00, 0.00, 0.00, 10:46:31.633
40, 8189.30, -187500.02, -187500.02, -108110.47, -179802.91, -73206.01, -187500.02, -125797.18, 0.00, 0.00, 0.00, 10:46:31.638
41, 8296.10, -187500.02, -187500.02, -108121.42, -179815.52, -73216.53, -187500.02, -125818.10, 0.00, 0.00, 0.00, 10:46:31.642
42, 8178.23, -187500.02, -187500.02, -108129.89, -179823.52, -73222.68, -187500.02, -125837.84, 0.00, 0.00, 0.00, 10:46:31.644
43, 7986.26, -187500.02, -187500.02, -108095.02, -179786.97, -73186.47, -187500.02, -125806.32, 0.00, 0.00, 0.00, 10:46:31.649
44, 8083.40, -187500.02, -187500.02, -108088.80, -179778.22, -73178.29, -187500.02, -125797.16, 0.00, 0.00, 0.00, 10:46:31.653
45, 8289.99, -187500.02, -187500.02, -108113.62, -179800.08, -73200.44, -187500.02, -125818.73, 0.00, 0.00, 0.00, 10:46:31.657
46, 8308.48, -187500.02, -187500.02, -108142.12, -179826.53, -73228.36, -187500.02, -125844.81, 0.02, -0.54, 0.85, 10:46:31.662
47, 8207.54, -187500.02, -187500.02, -108192.20, -179876.38, -73277.33, -187500.02, -125894.97, 0.00, 0.00, 0.00, 10:46:31.665
48, 8175.89, -187500.02, -187500.02, -108202.04, -179882.92, -73281.63, -187500.02, -125909.96, 0.00, 0.00, 0.00, 10:46:31.668
49, 8263.73, -187500.02, -187500.02, -108192.54, -179871.59, -73269.33, -187500.02, -125909.80, 0.00, 0.00, 0.00, 10:46:31.672
50, 8221.02, -187500.02, -187500.02, -108176.43, -179854.00, -73251.16, -187500.02, -125898.12, 0.00, 0.00, 0.00, 10:46:31.677
51, 8145.60, -187500.02, -187500.02, -108217.20, -179893.89, -73288.33, -187500.02, -125934.89, 0.00, 0.00, 0.00, 10:46:31.682
52, 8131.21, -187500.02, -187500.02, -108244.91, -179918.39, -73310.95, -187500.02, -125955.16, 0.00, 0.00, 0.00, 10:46:31.686
53, 8269.72, -187500.02, -187500.02, -108247.30, -179917.70, -73308.11, -187500.02, -125951.54, 0.00, 0.00, 0.00, 10:46:31.689
54, 8320.68, -187500.02, -187500.02, -108272.52, -179941.45, -73329.41, -187500.02, -125979.14, 0.00, 0.00, 0.00, 10:46:31.692
55, 8157.38, -187500.02, -187500.02, -108290.31, -179958.47, -73344.27, -187500.02, -126006.32, 0.02, -0.53, 0.86, 10:46:31.696
56, 8037.37, -187500.02, -187500.02, -108267.17, -179934.28, -73319.55, -187500.02, -125991.95, 0.00, 0.00, 0.00, 10:46:31.701
57, 8162.03, -187500.02, -187500.02, -108240.87, -179905.50, -73291.08, -187500.02, -125964.93, 0.00, 0.00, 0.00, 10:46:31.705
58, 8236.64, -187500.02, -187500.02, -108222.36, -179887.19, -73270.73, -187500.02, -125944.07, 0.00, 0.00, 0.00, 10:46:31.709
59, 8223.12, -187500.02, -187500.02, -108264.18, -179930.69, -73309.96, -187500.02, -125985.18, 0.00, 0.00, 0.00, 10:46:31.713
60, 8206.60, -187500.02, -187500.02, -108350.77, -180017.14, -73393.23, -187500.02, -126068.51, 0.00, 0.00, 0.00, 10:46:31.717
61, 8255.17, -187500.02, -187500.02, -108349.43, -180015.02, -73390.88, -187500.02, -126069.09, 0.00, 0.00, 0.00, 10:46:31.721
62, 8285.34, -187500.02, -187500.02, -108339.93, -180003.53, -73379.57, -187500.02, -126070.79, 0.00, 0.00, 0.00, 10:46:31.725
63, 8163.59, -187500.02, -187500.02, -108328.62, -179989.56, -73366.60, -187500.02, -126067.32, 0.00, 0.00, 0.00, 10:46:31.729
64, 8066.81, -187500.02, -187500.02, -108345.02, -180004.53, -73382.36, -187500.02, -126082.77, 0.00, 0.00, 0.00, 10:46:31.733
65, 8162.70, -187500.02, -187500.02, -108350.44, -180008.00, -73388.02, -187500.02, -126086.37, 0.01, -0.54, 0.85, 10:46:31.738
66, 8275.67, -187500.02, -187500.02, -108345.61, -180002.03, -73383.34, -187500.02, -126079.75, 0.00, 0.00, 0.00, 10:46:31.741
67, 8191.67, -187500.02, -187500.02, -108342.57, -179997.58, -73378.52, -187500.02, -126080.30, 0.00, 0.00, 0.00, 10:46:31.745
68, 8025.46, -187500.02, -187500.02, -108352.47, -180005.34, -73387.59, -187500.02, -126100.65, 0.00, 0.00, 0.00, 10:46:31.748
69, 8044.53, -187500.02, -187500.02, -108326.30, -179976.63, -73361.87, -187500.02, -126077.45, 0.00, 0.00, 0.00, 10:46:31.753
70, 8250.41, -187500.02, -187500.02, -108338.14, -179987.11, -73372.73, -187500.02, -126087.88, 0.00, 0.00, 0.00, 10:46:31.757
71, 8266.50, -187500.02, -187500.02, -108365.27, -180011.64, -73397.63, -187500.02, -126113.55, 0.00, 0.00, 0.00, 10:46:31.760
72, 8136.35, -187500.02, -187500.02, -108382.02, -180027.30, -73413.03, -187500.02, -126129.13, 0.00, 0.00, 0.00, 10:46:31.764
73, 8164.02, -187500.02, -187500.02, -108428.78, -180072.52, -73456.91, -187500.02, -126180.96, 0.00, 0.00, 0.00, 10:46:31.769
74, 8263.95, -187500.02, -187500.02, -108447.35, -180086.56, -73469.53, -187500.02, -126207.51, 0.00, 0.00, 0.00, 10:46:31.773
75, 8213.26, -187500.02, -187500.02, -108429.80, -180066.52, -73448.32, -187500.02, -126196.73, 0.02, -0.54, 0.85, 10:46:31.777
76, 8082.08, -187500.02, -187500.02, -108433.83, -180071.25, -73452.45, -187500.02, -126202.35, 0.00, 0.00, 0.00, 10:46:31.781
77, 8090.68, -187500.02, -187500.02, -108464.67, -180102.19, -73479.59, -187500.02, -126229.15, 0.00, 0.00, 0.00, 10:46:31.784
78, 8253.58, -187500.02, -187500.02, -108474.45, -180109.17, -73484.06, -187500.02, -126233.71, 0.00, 0.00, 0.00, 10:46:31.788
79, 8284.99, -187500.02, -187500.02, -108485.57, -180118.80, -73491.88, -187500.02, -126247.01, 0.00, 0.00, 0.00, 10:46:31.792
80, 8133.64, -187500.02, -187500.02, -108501.82, -180132.91, -73504.78, -187500.02, -126272.76, 0.00, 0.00, 0.00, 10:46:31.797
81, 8009.90, -187500.02, -187500.02, -108484.92, -180116.98, -73486.48, -187500.02, -126266.03, 0.00, 0.00, 0.00, 10:46:31.802
82, 8112.59, -187500.02, -187500.02, -108451.04, -180082.02, -73450.69, -187500.02, -126231.77, 0.00, 0.00, 0.00, 10:46:31.804
83, 8203.92, -187500.02, -187500.02, -108436.55, -180065.78, -73434.33, -187500.02, -126213.79, 0.00, 0.00, 0.00, 10:46:31.809
84, 8146.58, -187500.02, -187500.02, -108456.63, -180085.97, -73452.44, -187500.02, -126232.84, 0.00, 0.00, 0.00, 10:46:31.813
85, 8153.18, -187500.02, -187500.02, -108517.91, -180145.52, -73510.62, -187500.02, -126292.80, 0.02, -0.54, 0.84, 10:46:31.816
86, 8301.64, -187500.02, -187500.02, -108582.67, -180206.84, -73571.55, -187500.02, -126360.71, 0.00, 0.00, 0.00, 10:46:31.820
87, 8316.17, -187500.02, -187500.02, -108571.72, -180192.61, -73558.18, -187500.02, -126360.15, 0.00, 0.00, 0.00, 10:46:31.825
88, 8155.84, -187500.02, -187500.02, -108535.75, -180155.09, -73519.45, -187500.02, -126328.77, 0.00, 0.00, 0.00, 10:46:31.829
89, 8069.02, -187500.02, -187500.02, -108552.67, -180170.64, -73533.23, -187500.02, -126341.76, 0.00, 0.00, 0.00, 10:46:31.834
90, 8168.27, -187500.02, -187500.02, -108578.34, -180193.86, -73554.85, -187500.02, -126361.25, 0.00, 0.00, 0.00, 10:46:31.837
91, 8284.94, -187500.02, -187500.02, -108574.06, -180189.56, -73549.04, -187500.02, -126355.50, 0.00, 0.00, 0.00, 10:46:31.840
92, 8173.16, -187500.02, -187500.02, -108559.16, -180174.50, -73531.78, -187500.02, -126346.12, 0.00, 0.00, 0.00, 10:46:31.844
93, 8028.72, -187500.02, -187500.02, -108573.10, -180189.14, -73543.67, -187500.02, -126371.10, 0.00, 0.00, 0.00, 10:46:31.849
94, 8045.93, -187500.02, -187500.02, -108568.09, -180184.38, -73537.23, -187500.02, -126373.32, 0.00, 0.00, 0.00, 10:46:31.854
95, 8178.37, -187500.02, -187500.02, -108532.84, -180146.19, -73500.89, -187500.02, -126336.21, 0.02, -0.54, 0.85, 10:46:31.857
96, 8247.32, -187500.02, -187500.02, -108569.39, -180180.92, -73535.29, -187500.02, -126372.29, 0.00, 0.00, 0.00, 10:46:31.861
97, 8156.64, -187500.02, -187500.02, -108608.80, -180219.05, -73573.42, -187500.02, -126410.15, 0.00, 0.00, 0.00, 10:46:31.865
98, 8218.76, -187500.02, -187500.02, -108667.52, -180274.69, -73630.11, -187500.02, -126467.15, 0.00, 0.00, 0.00, 10:46:31.869
99, 8313.19, -187500.02, -187500.02, -108685.31, -180289.03, -73644.39, -187500.02, -126491.18, 0.00, 0.00, 0.00, 10:46:31.872
100, 8232.17, -187500.02, -187500.02, -108652.25, -180255.23, -73609.81, -187500.02, -126468.06, 0.00, 0.00, 0.00, 10:46:31.876
101, 8066.39, -187500.02, -187500.02, -108636.11, -180240.22, -73594.37, -187500.02, -126457.43, 0.00, 0.00, 0.00, 10:46:31.881
102, 8046.65, -187500.02, -187500.02, -108641.70, -180247.70, -73601.32, -187500.02, -126462.50, 0.00, 0.00, 0.00, 10:46:31.884
103, 8179.80, -187500.02, -187500.02, -108629.41, -180236.25, -73590.14, -187500.02, -126447.66, 0.00, 0.00, 0.00, 10:46:31.889
104, 8203.60, -187500.02, -187500.02, -108605.05, -180211.63, -73565.45, -187500.02, -126421.35, 0.02, -0.54, 0.85, 10:46:31.893
105, 8096.90, -187500.02, -187500.02, -108615.99, -180224.03, -73576.11, -187500.02, -126431.52, 0.00, 0.00, 0.00, 10:46:31.897
106, 8036.46, -187500.02, -187500.02, -108645.84, -180254.14, -73607.00, -187500.02, -126466.63, 0.00, 0.00, 0.00, 10:46:31.900
107, 8121.89, -187500.02, -187500.02, -108626.26, -180231.36, -73585.98, -187500.02, -126456.76, 0.00, 0.00, 0.00, 10:46:31.904
108, 8214.24, -187500.02, -187500.02, -108634.15, -180238.27, -73593.02, -187500.02, -126473.56, 0.00, 0.00, 0.00, 10:46:31.909
109, 8138.67, -187500.02, -187500.02, -108645.86, -180250.08, -73603.95, -187500.02, -126486.70, 0.00, 0.00, 0.00, 10:46:31.914
110, 8102.35, -187500.02, -187500.02, -108680.03, -180282.77, -73637.95, -187500.02, -126518.49, 0.00, 0.00, 0.00, 10:46:31.918
111, 8235.54, -187500.02, -187500.02, -108718.55, -180318.59, -73675.84, -187500.02, -126551.95, 0.00, 0.00, 0.00, 10:46:31.920
112, 8329.58, -187500.02, -187500.02, -108734.69, -180331.98, -73690.52, -187500.02, -126567.22, 0.00, 0.00, 0.00, 10:46:31.926
113, 8212.48, -187500.02, -187500.02, -108748.43, -180342.52, -73701.66, -187500.02, -126590.44, 0.00, 0.00, 0.00, 10:46:31.930
114, 8063.97, -187500.02, -187500.02, -108766.34, -180357.38, -73715.11, -187500.02, -126616.52, 0.02, -0.54, 0.85, 10:46:31.934
115, 8104.68, -187500.02, -187500.02, -108742.04, -180332.45, -73688.05, -187500.02, -126595.70, 0.00, 0.00, 0.00, 10:46:31.936
116, 8234.40, -187500.02, -187500.02, -108741.28, -180332.11, -73687.62, -187500.02, -126592.66, 0.00, 0.00, 0.00, 10:46:31.939
117, 8161.78, -187500.02, -187500.02, -108729.99, -180319.72, -73677.18, -187500.02, -126578.08, 0.00, 0.00, 0.00, 10:46:31.943
118, 8078.81, -187500.02, -187500.02, -108766.24, -180356.31, -73713.63, -187500.02, -126612.84, 0.00, 0.00, 0.00, 10:46:31.948
119, 8114.13, -187500.02, -187500.02, -108800.47, -180391.25, -73746.60, -187500.02, -126650.84, 0.00, 0.00, 0.00, 10:46:31.952
120, 8158.16, -187500.02, -187500.02, -108760.84, -180350.31, -73704.85, -187500.02, -126619.99, 0.00, 0.00, 0.00, 10:46:31.956
121, 8105.50, -187500.02, -187500.02, -108709.49, -180297.38, -73652.44, -187500.02, -126572.60, 0.00, 0.00, 0.00, 10:46:31.961
122, 8073.02, -187500.02, -187500.02, -108751.38, -180338.58, -73694.02, -187500.02, -126613.28, 0.00, 0.00, 0.00, 10:46:31.965
123, 8114.06, -187500.02, -187500.02, -108785.34, -180370.84, -73726.09, -187500.02, -126642.99, 0.00, 0.00, 0.00, 10:46:31.968
124, 8313.08, -187500.02, -187500.02, -108832.96, -180417.33, -73773.49, -187500.02, -126689.17, 0.02, -0.54, 0.86, 10:46:31.971
125, 8278.57, -187500.02, -187500.02, -108844.14, -180428.77, -73783.09, -187500.02, -126709.30, 0.00, 0.00, 0.00, 10:46:31.976
126, 8115.36, -187500.02, -187500.02, -108855.70, -180439.28, -73792.90, -187500.02, -126732.33, 0.00, 0.00, 0.00, 10:46:31.981
127, 8034.67, -187500.02, -187500.02, -108844.59, -180424.73, -73778.61, -187500.02, -126724.09, 0.00, 0.00, 0.00, 10:46:31.985
128, 8171.71, -187500.02, -187500.02, -108836.79, -180412.69, -73764.82, -187500.02, -126710.60, 0.00, 0.00, 0.00, 10:46:31.989
129, 8254.07, -187500.02, -187500.02, -108849.52, -180422.73, -73772.76, -187500.02, -126719.95, 0.00, 0.00, 0.00, 10:46:31.991
130, 8200.45, -187500.02, -187500.02, -108904.53, -180475.73, -73823.74, -187500.02, -126771.13, 0.00, 0.00, 0.00, 10:46:31.995
131, 8081.45, -187500.02, -187500.02, -108912.34, -180481.91, -73828.34, -187500.02, -126779.96, 0.00, 0.00, 0.00, 10:46:32.000
132, 8084.16, -187500.02, -187500.02, -108865.48, -180434.94, -73779.35, -187500.02, -126741.49, 0.00, 0.00, 0.00, 10:46:32.005
133, 8113.71, -187500.02, -187500.02, -108815.48, -180382.11, -73726.35, -187500.02, -126698.09, 0.00, 0.00, 0.00, 10:46:32.009
134, 8105.52, -187500.02, -187500.02, -108835.60, -180398.39, -73743.59, -187500.02, -126718.36, 0.02, -0.54, 0.85, 10:46:32.013
135, 8090.79, -187500.02, -187500.02, -108896.94, -180457.63, -73803.20, -187500.02, -126777.26, 0.00, 0.00, 0.00, 10:46:32.019
136, 8202.87, -187500.02, -187500.02, -108917.27, -180476.50, -73821.38, -187500.02, -126794.78, 0.00, 0.00, 0.00, 10:46:32.022
137, 8278.44, -187500.02, -187500.02, -108906.70, -180464.84, -73809.16, -187500.02, -126783.09, 0.00, 0.00, 0.00, 10:46:32.025
138, 8184.72, -187500.02, -187500.02, -108921.05, -180478.91, -73823.88, -187500.02, -126805.02, 0.00, 0.00, 0.00, 10:46:32.027
139, 8015.25, -187500.02, -187500.02, -108925.66, -180480.58, -73826.89, -187500.02, -126819.52, 0.00, 0.00, 0.00, 10:46:32.033
140, 8039.94, -187500.02, -187500.02, -108907.55, -180461.47, -73808.19, -187500.02, -126805.89, 0.00, 0.00, 0.00, 10:46:32.036
141, 8191.78, -187500.02, -187500.02, -108911.11, -180463.94, -73808.68, -187500.02, -126805.33, 0.00, 0.00, 0.00, 10:46:32.040
142, 8156.89, -187500.02, -187500.02, -108912.38, -180462.55, -73805.59, -187500.02, -126801.09, 0.00, 0.00, 0.00, 10:46:32.043
143, 8073.67, -187500.02, -187500.02, -108951.20, -180499.14, -73839.52, -187500.02, -126835.55, 0.00, 0.00, 0.00, 10:46:32.049
144, 8075.33, -187500.02, -187500.02, -108946.82, -180493.73, -73832.39, -187500.02, -126828.78, 0.02, -0.54, 0.86, 10:46:32.052
145, 8307.65, -187500.02, -187500.02, -109001.77, -180547.78, -73885.39, -187500.02, -126890.34, 0.00, 0.00, 0.00, 10:46:32.056
146, 8237.76, -187500.02, -187500.02, -109000.06, -180543.22, -73880.52, -187500.02, -126900.51, 0.00, 0.00, 0.00, 10:46:32.060
147, 8079.35, -187500.02, -187500.02, -108982.19, -180524.47, -73862.61, -187500.02, -126891.95, 0.00, 0.00, 0.00, 10:46:32.064
148, 8117.26, -187500.02, -187500.02, -109019.31, -180560.17, -73898.04, -187500.02, -126925.74, 0.00, 0.00, 0.00, 10:46:32.068
149, 8259.89, -187500.02, -187500.02, -109025.97, -180565.41, -73903.85, -187500.02, -126928.83, 0.00, 0.00, 0.00, 10:46:32.072
150, 8312.59, -187500.02, -187500.02, -109053.24, -180592.36, -73928.64, -187500.02, -126956.70, 0.00, 0.00, 0.00, 10:46:32.077
151, 8141.44, -187500.02, -187500.02, -109073.94, -180612.13, -73945.80, -187500.02, -126983.88, 0.00, 0.00, 0.00, 10:46:32.081
152, 8016.77, -187500.02, -187500.02, -109060.86, -180598.38, -73931.08, -187500.02, -126979.01, 0.00, 0.00, 0.00, 10:46:32.086
153, 8117.21, -187500.02, -187500.02, -109037.10, -180573.09, -73905.28, -187500.02, -126956.01, 0.02, -0.54, 0.85, 10:46:32.088
154, 8171.33, -187500.02, -187500.02, -109012.56, -180546.50, -73877.30, -187500.02, -126927.35, 0.00, 0.00, 0.00, 10:46:32.093
155, 8072.42, -187500.02, -187500.02, -109015.24, -180546.97, -73877.41, -187500.02, -126926.01, 0.00, 0.00, 0.00, 10:46:32.098
156, 8011.45, -187500.02, -187500.02, -109036.09, -180567.94, -73896.67, -187500.02, -126942.75, 0.00, 0.00, 0.00, 10:46:32.102
157, 8107.51, -187500.02, -187500.02, -109037.64, -180568.11, -73895.67, -187500.02, -126941.37, 0.00, 0.00, 0.00, 10:46:32.104
158, 8203.40, -187500.02, -187500.02, -109031.98, -180561.31, -73888.20, -187500.02, -126943.64, 0.00, 0.00, 0.00, 10:46:32.108
159, 8122.53, -187500.02, -187500.02, -109050.27, -180579.25, -73905.64, -187500.02, -126973.57, 0.00, 0.00, 0.00, 10:46:32.112
160, 8030.29, -187500.02, -187500.02, -109063.99, -180592.66, -73918.06, -187500.02, -126992.64, 0.00, 0.00, 0.00, 10:46:32.116
161, 8115.72, -187500.02, -187500.02, -109074.52, -180602.48, -73926.23, -187500.02, -126999.14, 0.00, 0.00, 0.00, 10:46:32.121
162, 8271.26, -187500.02, -187500.02, -109098.55, -180622.66, -73945.09, -187500.02, -127016.55, 0.00, 0.00, 0.00, 10:46:32.124
163, 8216.37, -187500.02, -187500.02, -109124.25, -180644.69, -73964.85, -187500.02, -127035.95, 0.02, -0.54, 0.84, 10:46:32.128
164, 8072.09, -187500.02, -187500.02, -109140.88, -180663.36, -73980.80, -187500.02, -127054.27, 0.00, 0.00, 0.00, 10:46:32.132
165, 8071.71, -187500.02, -187500.02, -109137.40, -180659.69, -73977.23, -187500.02, -127060.03, 0.00, 0.00, 0.00, 10:46:32.136
166, 8139.12, -187500.02, -187500.02, -109100.23, -180620.78, -73939.70, -187500.02, -127030.63, 0.00, 0.00, 0.00, 10:46:32.140
167, 8156.51, -187500.02, -187500.02, -109120.92, -180640.38, -73959.10, -187500.02, -127052.61, 0.00, 0.00, 0.00, 10:46:32.143
168, 8058.50, -187500.02, -187500.02, -109160.53, -180679.52, -73997.50, -187500.02, -127089.49, 0.00, 0.00, 0.00, 10:46:32.148
169, 8098.01, -187500.02, -187500.02, -109188.52, -180705.89, -74022.05, -187500.02, -127112.22, 0.00, 0.00, 0.00, 10:46:32.152
170, 8211.79, -187500.02, -187500.02, -109201.88, -180717.47, -74032.04, -187500.02, -127127.80, 0.00, 0.00, 0.00, 10:46:32.156
171, 8112.30, -187500.02, -187500.02, -109144.62, -180657.66, -73971.40, -187500.02, -127076.79, 0.00, 0.00, 0.00, 10:46:32.160
172, 8022.69, -187500.02, -187500.02, -109148.41, -180658.89, -73972.70, -187500.02, -127082.29, 0.00, 0.00, 0.00, 10:46:32.164
173, 8094.86, -187500.02, -187500.02, -109200.70, -180710.00, -74023.30, -187500.02, -127132.94, 0.02, -0.54, 0.84, 10:46:32.168
174, 8254.63, -187500.02, -187500.02, -109218.64, -180726.39, -74040.40, -187500.02, -127147.42, 0.00, 0.00, 0.00, 10:46:32.172
175, 8312.19, -187500.02, -187500.02, -109252.82, -180756.70, -74070.86, -187500.02, -127181.82, 0.00, 0.00, 0.00, 10:46:32.177
176, 8134.45, -187500.02, -187500.02, -109270.88, -180769.66, -74083.45, -187500.02, -127208.71, 0.00, 0.00, 0.00, 10:46:32.180
177, 7990.32, -187500.02, -187500.02, -109240.15, -180736.56, -74050.52, -187500.02, -127187.95, 0.00, 0.00, 0.00, 10:46:32.183
178, 8150.47, -187500.02, -187500.02, -109246.25, -180742.25, -74055.69, -187500.02, -127196.15, 0.00, 0.00, 0.00, 10:46:32.188
179, 8276.31, -187500.02, -187500.02, -109281.84, -180778.69, -74089.19, -187500.02, -127230.53, 0.00, 0.00, 0.00, 10:46:32.192
180, 8178.93, -187500.02, -187500.02, -109312.56, -180808.55, -74115.86, -187500.02, -127258.18, 0.00, 0.00, 0.00, 10:46:32.196
181, 8091.89, -187500.02, -187500.02, -109337.78, -180831.95, -74138.79, -187500.02, -127280.33, 0.00, 0.00, 0.00, 10:46:32.200
182, 8139.14, -187500.02, -187500.02, -109327.95, -180820.89, -74127.44, -187500.02, -127276.35, 0.00, 0.00, 0.00, 10:46:32.205
183, 8208.54, -187500.02, -187500.02, -109320.41, -180811.61, -74120.04, -187500.02, -127280.26, 0.02, -0.55, 0.85, 10:46:32.208
184, 8070.05, -187500.02, -187500.02, -109294.08, -180784.08, -74093.82, -187500.02, -127259.23, 0.00, 0.00, 0.00, 10:46:32.211
185, 8004.25, -187500.02, -187500.02, -109305.99, -180796.17, -74104.55, -187500.02, -127270.16, 0.00, 0.00, 0.00, 10:46:32.216
186, 8100.36, -187500.02, -187500.02, -109297.70, -180786.20, -74094.11, -187500.02, -127258.02, 0.00, 0.00, 0.00, 10:46:32.220
187, 8295.92, -187500.02, -187500.02, -109329.35, -180816.00, -74121.91, -187500.02, -127285.29, 0.00, 0.00, 0.00, 10:46:32.224
188, 8258.59, -187500.02, -187500.02, -109383.64, -180871.41, -74173.68, -187500.02, -127345.46, 0.00, 0.00, 0.00, 10:46:32.227
189, 8027.16, -187500.02, -187500.02, -109357.16, -180846.13, -74147.46, -187500.02, -127330.28, 0.00, 0.00, 0.00, 10:46:32.232
190, 8093.23, -187500.02, -187500.02, -109367.23, -180855.13, -74156.11, -187500.02, -127343.18, 0.00, 0.00, 0.00, 10:46:32.236
191, 8237.69, -187500.02, -187500.02, -109378.37, -180865.03, -74166.48, -187500.02, -127350.71, 0.00, 0.00, 0.00, 10:46:32.239
192, 8200.70, -187500.02, -187500.02, -109361.80, -180848.97, -74151.26, -187500.02, -127331.27, 0.02, -0.55, 0.85, 10:46:32.244
193, 8066.95, -187500.02, -187500.02, -109381.59, -180867.89, -74167.96, -187500.02, -127347.36, 0.00, 0.00, 0.00, 10:46:32.248
194, 8071.73, -187500.02, -187500.02, -109394.30, -180880.25, -74178.20, -187500.02, -127358.42, 0.00, 0.00, 0.00, 10:46:32.252
195, 8128.95, -187500.02, -187500.02, -109354.99, -180841.34, -74140.24, -187500.02, -127325.30, 0.00, 0.00, 0.00, 10:46:32.256
196, 8124.39, -187500.02, -187500.02, -109336.82, -180822.30, -74120.39, -187500.02, -127315.66, 0.00, 0.00, 0.00, 10:46:32.261
197, 8053.69, -187500.02, -187500.02, -109363.75, -180847.78, -74144.27, -187500.02, -127343.07, 0.00, 0.00, 0.00, 10:46:32.264
198, 8099.00, -187500.02, -187500.02, -109405.73, -180887.50, -74182.95, -187500.02, -127381.24, 0.00, 0.00, 0.00, 10:46:32.266
199, 8241.24, -187500.02, -187500.02, -109417.48, -180896.89, -74192.10, -187500.02, -127389.43, 0.00, 0.00, 0.00, 10:46:32.272
200, 8277.03, -187500.02, -187500.02, -109422.47, -180902.08, -74195.65, -187500.02, -127393.67, 0.00, 0.00, 0.00, 10:46:32.276
201, 8107.29, -187500.02, -187500.02, -109431.70, -180910.50, -74202.52, -187500.02, -127411.58, 0.00, 0.00, 0.00, 10:46:32.280
202, 7987.04, -187500.02, -187500.02, -109424.10, -180902.30, -74193.75, -187500.02, -127412.78, 0.03, -0.55, 0.84, 10:46:32.283
203, 8088.45, -187500.02, -187500.02, -109407.92, -180884.23, -74174.84, -187500.02, -127395.75, 0.00, 0.00, 0.00, 10:46:32.287
204, 8162.52, -187500.02, -187500.02, -109395.06, -180871.19, -74159.66, -187500.02, -127379.62, 0.00, 0.00, 0.00, 10:46:32.291
205, 8099.80, -187500.02, -187500.02, -109419.59, -180894.92, -74183.65, -187500.02, -127401.50, 0.00, 0.00, 0.00, 10:46:32.294
206, 8023.67, -187500.02, -187500.02, -109449.36, -180921.16, -74210.41, -187500.02, -127428.41, 0.00, 0.00, 0.00, 10:46:32.299
207, 8083.60, -187500.02, -187500.02, -109444.53, -180914.03, -74201.80, -187500.02, -127429.55, 0.00, 0.00, 0.00, 10:46:32.304
208, 8161.09, -187500.02, -187500.02, -109417.10, -180884.53, -74172.95, -187500.02, -127412.78, 0.00, 0.00, 0.00, 10:46:32.308
209, 8128.95, -187500.02, -187500.02, -109432.15, -180897.47, -74187.09, -187500.02, -127432.19, 0.00, 0.00, 0.00, 10:46:32.312
210, 8126.00, -187500.02, -187500.02, -109530.48, -180993.42, -74281.23, -187500.02, -127526.40, 0.00, 0.00, 0.00, 10:46:32.315
211, 8150.47, -187500.02, -187500.02, -109549.67, -181008.13, -74295.99, -187500.02, -127542.02, 0.00, 0.00, 0.00, 10:46:32.319
212, 8148.33, -187500.02, -187500.02, -109482.23, -180937.28, -74228.29, -187500.02, -127479.99, 0.03, -0.56, 0.85, 10:46:32.323
213, 8097.84, -187500.02, -187500.02, -109451.10, -180903.66, -74196.41, -187500.02, -127446.89, 0.00, 0.00, 0.00, 10:46:32.327
214, 8025.30, -187500.02, -187500.02, -109483.24, -180935.17, -74228.30, -187500.02, -127475.33, 0.00, 0.00, 0.00, 10:46:32.332
215, 8042.36, -187500.02, -187500.02, -109500.95, -180950.42, -74244.24, -187500.02, -127489.41, 0.00, 0.00, 0.00, 10:46:32.336
216, 8199.13, -187500.02, -187500.02, -109511.97, -180959.05, -74253.32, -187500.02, -127500.27, 0.00, 0.00, 0.00, 10:46:32.340
217, 8186.01, -187500.02, -187500.02, -109533.60, -180981.11, -74274.38, -187500.02, -127534.55, 0.00, 0.00, 0.00, 10:46:32.343
218, 8014.69, -187500.02, -187500.02, -109548.82, -180997.31, -74289.35, -187500.02, -127562.95, 0.00, 0.00, 0.00, 10:46:32.347
219, 7928.92, -187500.02, -187500.02, -109504.45, -180951.94, -74242.66, -187500.02, -127520.84, 0.00, 0.00, 0.00, 10:46:32.351
220, 8123.38, -187500.02, -187500.02, -109502.00, -180947.80, -74238.84, -187500.02, -127514.89, 0.00, 0.00, 0.00, 10:46:32.355
221, 8235.97, -187500.02, -187500.02, -109530.34, -180974.45, -74266.13, -187500.02, -127540.91, 0.00, 0.00, 0.00, 10:46:32.361
222, 8218.87, -187500.02, -187500.02, -109610.80, -181054.13, -74345.01, -187500.02, -127620.45, 0.02, -0.54, 0.86, 10:46:32.364
223, 8122.87, -187500.02, -187500.02, -109664.88, -181103.66, -74394.90, -187500.02, -127676.73, 0.00, 0.00, 0.00, 10:46:32.368
224, 8140.26, -187500.02, -187500.02, -109633.98, -181068.92, -74358.75, -187500.02, -127649.51, 0.00, 0.00, 0.00, 10:46:32.371
225, 8193.72, -187500.02, -187500.02, -109615.30, -181046.67, -74333.31, -187500.02, -127629.95, 0.00, 0.00, 0.00, 10:46:32.375
226, 8137.55, -187500.02, -187500.02, -109638.41, -181067.83, -74351.49, -187500.02, -127648.91, 0.00, 0.00, 0.00, 10:46:32.378
227, 8055.32, -187500.02, -187500.02, -109652.36, -181081.80, -74365.21, -187500.02, -127659.05, 0.00, 0.00, 0.00, 10:46:32.383
228, 8151.28, -187500.02, -187500.02, -109661.55, -181092.75, -74374.02, -187500.02, -127664.63, 0.00, 0.00, 0.00, 10:46:32.388
229, 8225.44, -187500.02, -187500.02, -109654.44, -181088.66, -74368.14, -187500.02, -127662.59, 0.00, 0.00, 0.00, 10:46:32.392
230, 8147.48, -187500.02, -187500.02, -109674.66, -181110.28, -74388.97, -187500.02, -127694.38, 0.00, 0.00, 0.00, 10:46:32.395
231, 7987.40, -187500.02, -187500.02, -109658.59, -181094.19, -74373.02, -187500.02, -127685.66, 0.00, 0.00, 0.00, 10:46:32.400
232, 8070.79, -187500.02, -187500.02, -109642.09, -181075.56, -74355.40, -187500.02, -127666.88, 0.02, -0.53, 0.86, 10:46:32.405
233, 8248.89, -187500.02, -187500.02, -109670.10, -181102.70, -74381.26, -187500.02, -127692.74, 0.00, 0.00, 0.00, 10:46:32.408
234, 8225.26, -187500.02, -187500.02, -109676.67, -181108.72, -74386.42, -187500.02, -127698.69, 0.00, 0.00, 0.00, 10:46:32.411
235, 8180.94, -187500.02, -187500.02, -109742.39, -181172.30, -74449.57, -187500.02, -127764.45, 0.00, 0.00, 0.00, 10:46:32.416
236, 8157.43, -187500.02, -187500.02, -109760.96, -181187.56, -74464.86, -187500.02, -127788.80, 0.00, 0.00, 0.00, 10:46:32.419
237, 8195.76, -187500.02, -187500.02, -109720.59, -181145.61, -74424.58, -187500.02, -127756.58, 0.00, 0.00, 0.00, 10:46:32.423
238, 8163.26, -187500.02, -187500.02, -109703.68, -181128.00, -74406.38, -187500.02, -127740.04, 0.00, 0.00, 0.00, 10:46:32.427
239, 8068.06, -187500.02, -187500.02, -109728.66, -181153.64, -74429.54, -187500.02, -127761.52, 0.00, 0.00, 0.00, 10:46:32.432
240, 8054.70, -187500.02, -187500.02, -109712.44, -181137.25, -74411.80, -187500.02, -127739.14, 0.00, 0.00, 0.00, 10:46:32.436
241, 8196.23, -187500.02, -187500.02, -109703.05, -181128.05, -74400.59, -187500.02, -127725.82, 0.02, -0.55, 0.85, 10:46:32.439
242, 8198.37, -187500.02, -187500.02, -109724.06, -181149.75, -74418.43, -187500.02, -127750.30, 0.00, 0.00, 0.00, 10:46:32.443
243, 8024.86, -187500.02, -187500.02, -109724.24, -181149.34, -74416.84, -187500.02, -127761.61, 0.00, 0.00, 0.00, 10:46:32.447
244, 7960.60, -187500.02, -187500.02, -109706.54, -181130.84, -74397.96, -187500.02, -127751.91, 0.00, 0.00, 0.00, 10:46:32.452
245, 8103.07, -187500.02, -187500.02, -109671.80, -181096.69, -74362.62, -187500.02, -127716.39, 0.00, 0.00, 0.00, 10:46:32.455
246, 8234.47, -187500.02, -187500.02, -109708.82, -181135.42, -74399.84, -187500.02, -127752.33, 0.00, 0.00, 0.00, 10:46:32.460
247, 8195.87, -187500.02, -187500.02, -109768.48, -181196.22, -74458.27, -187500.02, -127811.00, 0.00, 0.00, 0.00, 10:46:32.464
248, 8166.63, -187500.02, -187500.02, -109833.83, -181258.61, -74517.56, -187500.02, -127876.56, 0.00, 0.00, 0.00, 10:46:32.467
249, 8198.53, -187500.02, -187500.02, -109818.88, -181238.53, -74496.93, -187500.02, -127866.66, 0.00, 0.00, 0.00, 10:46:32.471
250, 8209.24, -187500.02, -187500.02, -109798.54, -181216.69, -74474.18, -187500.02, -127853.07, 0.00, 0.00, 0.00, 10:46:32.475
251, 8065.94, -187500.02, -187500.02, -109769.23, -181187.59, -74444.31, -187500.02, -127822.96, 0.01, -0.55, 0.84, 10:46:32.479
252, 7991.04, -187500.02, -187500.02, -109767.96, -181185.94, -74442.55, -187500.02, -127818.94, 0.00, 0.00, 0.00, 10:46:32.484
253, 8108.97, -187500.02, -187500.02, -109770.64, -181187.13, -74444.38, -187500.02, -127818.73, 0.00, 0.00, 0.00, 10:46:32.488
254, 8193.21, -187500.02, -187500.02, -109761.84, -181177.11, -74435.53, -187500.02, -127805.91, 0.00, 0.00, 0.00, 10:46:32.491
255, 8150.85, -187500.02, -187500.02, -109790.27, -181205.11, -74463.65, -187500.02, -127833.87, 0.00, 0.00, 0.00, 10:46:32.496
0, 7982.46, -187500.02, -187500.02, -109780.23, -181195.17, -74452.85, -187500.02, -127832.17, 0.00, 0.00, 0.00, 10:46:32.499
1, 8022.15, -187500.02, -187500.02, -109740.22, -181157.17, -74413.67, -187500.02, -127802.20, 0.00, 0.00, 0.00, 10:46:32.503
2, 8185.92, -187500.02, -187500.02, -109748.23, -181165.11, -74422.79, -187500.02, -127813.17, 0.00, 0.00, 0.00, 10:46:32.507
3, 8214.42, -187500.02, -187500.02, -109788.66, -181203.63, -74461.05, -187500.02, -127851.51, 0.00, 0.00, 0.00, 10:46:32.512
4, 8146.07, -187500.02, -187500.02, -109852.38, -181266.52, -74521.02, -187500.02, -127912.13, 0.00, 0.00, 0.00, 10:46:32.517
5, 8128.68, -187500.02, -187500.02, -109863.20, -181276.64, -74528.02, -187500.02, -127924.13, 0.02, -0.53, 0.85, 10:46:32.519
6, 8208.03, -187500.02, -187500.02, -109851.13, -181264.50, -74514.66, -187500.02, -127920.91, 0.00, 0.00, 0.00, 10:46:32.523
7, 8163.13, -187500.02, -187500.02, -109845.09, -181257.75, -74507.55, -187500.02, -127921.33, 0.00, 0.00, 0.00, 10:46:32.528
8, 8056.19, -187500.02, -187500.02, -109861.50, -181272.22, -74521.83, -187500.02, -127934.41, 0.00, 0.00, 0.00, 10:46:32.531
9, 8078.88, -187500.02, -187500.02, -109869.82, -181278.03, -74529.30, -187500.02, -127938.14, 0.00, 0.00, 0.00, 10:46:32.535
10, 8220.68, -187500.02, -187500.02, -109885.04, -181291.86, -74543.36, -187500.02, -127950.63, 0.00, 0.00, 0.00, 10:46:32.540
11, 8198.55, -187500.02, -187500.02, -109882.55, -181287.95, -74539.53, -187500.02, -127948.20, 0.00, 0.00, 0.00, 10:46:32.544
12, 8024.16, -187500.02, -187500.02, -109883.59, -181287.53, -74541.08, -187500.02, -127958.48, 0.00, 0.00, 0.00, 10:46:32.547
13, 7924.97, -187500.02, -187500.02, -109858.69, -181259.47, -74514.27, -187500.02, -127941.41, 0.00, 0.00, 0.00, 10:46:32.552
14, 8051.61, -187500.02, -187500.02, -109818.95, -181216.94, -74472.95, -187500.02, -127900.55, 0.00, 0.00, 0.00, 10:46:32.555
15, 8210.22, -187500.02, -187500.02, -109851.04, -181248.75, -74504.93, -187500.02, -127930.14, 0.02, -0.54, 0.85, 10:46:32.559
16, 8173.38, -187500.02, -187500.02, -109903.13, -181300.16, -74556.41, -187500.02, -127980.74, 0.00, 0.00, 0.00, 10:46:32.563
17, 8137.51, -187500.02, -187500.02, -109960.12, -181354.73, -74610.12, -187500.02, -128037.80, 0.00, 0.00, 0.00, 10:46:32.568
18, 8180.58, -187500.02, -187500.02, -109956.32, -181349.06, -74601.76, -187500.02, -128040.78, 0.00, 0.00, 0.00, 10:46:32.572
19, 8195.80, -187500.02, -187500.02, -109921.90, -181313.23, -74563.77, -187500.02, -128013.94, 0.00, 0.00, 0.00, 10:46:32.574
20, 8137.58, -187500.02, -187500.02, -109939.53, -181331.00, -74578.54, -187500.02, -128032.06, 0.00, 0.00, 0.00, 10:46:32.579
21, 8007.91, -187500.02, -187500.02, -109931.42, -181323.38, -74570.20, -187500.02, -128020.70, 0.00, 0.00, 0.00, 10:46:32.584
22, 8115.16, -187500.02, -187500.02, -109927.75, -181320.34, -74565.30, -187500.02, -128012.23, 0.00, 0.00, 0.00, 10:46:32.587
23, 8262.55, -187500.02, -187500.02, -109957.95, -181351.52, -74594.81, -187500.02, -128041.31, 0.00, 0.00, 0.00, 10:46:32.591
24, 8199.76, -187500.02, -187500.02, -110001.00, -181392.20, -74635.04, -187500.02, -128089.02, 0.00, 0.00, 0.00, 10:46:32.595
25, 8002.73, -187500.02, -187500.02, -109984.93, -181371.25, -74614.52, -187500.02, -128078.69, 0.02, -0.53, 0.87, 10:46:32.599
26, 8056.08, -187500.02, -187500.02, -109979.32, -181363.28, -74606.77, -187500.02, -128074.71, 0.00, 0.00, 0.00, 10:46:32.603
27, 8194.55, -187500.02, -187500.02, -109980.95, -181363.70, -74607.93, -187500.02, -128074.62, 0.00, 0.00, 0.00, 10:46:32.606
28, 8165.32, -187500.02, -187500.02, -109965.37, -181345.63, -74590.95, -187500.02, -128054.91, 0.00, 0.00, 0.00, 10:46:32.611
29, 8072.58, -187500.02, -187500.02, -109971.95, -181348.56, -74596.20, -187500.02, -128058.15, 0.00, 0.00, 0.00, 10:46:32.616
30, 8140.62, -187500.02, -187500.02, -110009.63, -181385.39, -74633.97, -187500.02, -128101.87, 0.00, 0.00, 0.00, 10:46:32.619
31, 8274.15, -187500.02, -187500.02, -110036.47, -181412.03, -74658.49, -187500.02, -128138.68, 0.00, 0.00, 0.00, 10:46:32.623
32, 8233.96, -187500.02, -187500.02, -110041.68, -181415.77, -74661.33, -187500.02, -128151.46, 0.00, 0.00, 0.00, 10:46:32.628
33, 8049.76, -187500.02, -187500.02, -110011.41, -181384.17, -74630.37, -187500.02, -128121.24, 0.00, 0.00, 0.00, 10:46:32.630
34, 8074.54, -187500.02, -187500.02, -110027.38, -181399.63, -74647.83, -187500.02, -128132.51, 0.01, -0.52, 0.87, 10:46:32.634
35, 8239.88, -187500.02, -187500.02, -110054.15, -181425.50, -74675.61, -187500.02, -128155.66, 0.00, 0.00, 0.00, 10:46:32.639
36, 8276.81, -187500.02, -187500.02, -110074.25, -181444.39, -74693.42, -187500.02, -128174.30, 0.00, 0.00, 0.00, 10:46:32.644
37, 8142.16, -187500.02, -187500.02, -110104.11, -181473.50, -74719.02, -187500.02, -128210.18, 0.00, 0.00, 0.00, 10:46:32.647
38, 7987.28, -187500.02, -187500.02, -110059.98, -181427.84, -74672.46, -187500.02, -128173.37, 0.00, 0.00, 0.00, 10:46:32.652
39, 8106.75, -187500.02, -187500.02, -110033.99, -181403.72, -74646.87, -187500.02, -128148.89, 0.00, 0.00, 0.00, 10:46:32.656
40, 8170.81, -187500.02, -187500.02, -110024.76, -181395.39, -74636.20, -187500.02, -128135.98, 0.00, 0.00, 0.00, 10:46:32.658
41, 8100.21, -187500.02, -187500.02, -110041.70, -181410.55, -74649.99, -187500.02, -128148.02, 0.00, 0.00, 0.00, 10:46:32.662
42, 8123.27, -187500.02, -187500.02, -110095.66, -181465.84, -74704.42, -187500.02, -128199.86, 0.00, 0.00, 0.00, 10:46:32.667
43, 8297.46, -187500.02, -187500.02, -110151.54, -181521.28, -74759.14, -187500.02, -128259.83, 0.00, 0.00, 0.00, 10:46:32.672
44, 8294.75, -187500.02, -187500.02, -110148.52, -181516.59, -74754.73, -187500.02, -128267.98, 0.01, -0.54, 0.83, 10:46:32.675
45, 8128.95, -187500.02, -187500.02, -110120.16, -181487.44, -74726.30, -187500.02, -128249.41, 0.00, 0.00, 0.00, 10:46:32.678
46, 8052.62, -187500.02, -187500.02, -110143.78, -181512.23, -74750.31, -187500.02, -128272.34, 0.00, 0.00, 0.00, 10:46:32.683
47, 8139.97, -187500.02, -187500.02, -110131.31, -181497.09, -74737.30, -187500.02, -128254.23, 0.00, 0.00, 0.00, 10:46:32.686
48, 8302.35, -187500.02, -187500.02, -110164.55, -181528.20, -74769.76, -187500.02, -128283.72, 0.00, 0.00, 0.00, 10:46:32.690
49, 8188.70, -187500.02, -187500.02, -110176.75, -181537.98, -74779.16, -187500.02, -128299.68, 0.00, 0.00, 0.00, 10:46:32.696
50, 7986.68, -187500.02, -187500.02, -110155.43, -181515.66, -74756.37, -187500.02, -128288.15, 0.00, 0.00, 0.00, 10:46:32.700
51, 8011.71, -187500.02, -187500.02, -110120.67, -181482.34, -74721.01, -187500.02, -128256.07, 0.00, 0.00, 0.00, 10:46:32.703
52, 8161.05, -187500.02, -187500.02, -110112.87, -181476.13, -74713.45, -187500.02, -128245.63, 0.00, 0.00, 0.00, 10:46:32.707
53, 8174.99, -187500.02, -187500.02, -110132.00, -181495.91, -74733.28, -187500.02, -128263.73, 0.00, 0.00, 0.00, 10:46:32.710
54, 8114.24, -187500.02, -187500.02, -110176.75, -181539.34, -74778.27, -187500.02, -128307.77, 0.01, -0.54, 0.85, 10:46:32.714
55, 8134.54, -187500.02, -187500.02, -110183.08, -181545.53, -74785.60, -187500.02, -128316.78, 0.00, 0.00, 0.00, 10:46:32.719
56, 8262.23, -187500.02, -187500.02, -110189.83, -181551.86, -74791.15, -187500.02, -128332.55, 0.00, 0.00, 0.00, 10:46:32.723
57, 8187.33, -187500.02, -187500.02, -110165.02, -181526.13, -74765.84, -187500.02, -128315.64, 0.00, 0.00, 0.00, 10:46:32.727
58, 8036.95, -187500.02, -187500.02, -110156.23, -181515.53, -74755.09, -187500.02, -128304.06, 0.00, 0.00, 0.00, 10:46:32.731
59, 8054.99, -187500.02, -187500.02, -110175.68, -181534.88, -74772.70, -187500.02, -128318.97, 0.00, 0.00, 0.00, 10:46:32.735
60, 8178.21, -187500.02, -187500.02, -110171.09, -181529.81, -74767.16, -187500.02, -128310.84, 0.00, 0.00, 0.00, 10:46:32.738
61, 8238.38, -187500.02, -187500.02, -110186.59, -181545.09, -74781.11, -187500.02, -128326.14, 0.00, 0.00, 0.00, 10:46:32.742
62, 8116.63, -187500.02, -187500.02, -110227.65, -181586.13, -74819.76, -187500.02, -128374.60, 0.00, 0.00, 0.00, 10:46:32.747
63, 7987.02, -187500.02, -187500.02, -110213.20, -181570.55, -74803.51, -187500.02, -128366.78, 0.00, 0.00, 0.00, 10:46:32.750
64, 8075.08, -187500.02, -187500.02, -110174.80, -181530.73, -74764.23, -187500.02, -128327.71, 0.01, -0.53, 0.85, 10:46:32.756
65, 8194.55, -187500.02, -187500.02, -110177.13, -181532.14, -74765.60, -187500.02, -128327.28, 0.00, 0.00, 0.00, 10:46:32.759
66, 8130.38, -187500.02, -187500.02, -110197.49, -181551.61, -74783.91, -187500.02, -128346.26, 0.00, 0.00, 0.00, 10:46:32.762
67, 8098.55, -187500.02, -187500.02, -110247.61, -181598.89, -74831.63, -187500.02, -128395.50, 0.00, 0.00, 0.00, 10:46:32.767
68, 8156.62, -187500.02, -187500.02, -110250.76, -181597.44, -74830.04, -187500.02, -128404.35, 0.00, 0.00, 0.00, 10:46:32.770
69, 8177.27, -187500.02, -187500.02, -110213.19, -181557.58, -74790.92, -187500.02, -128374.38, 0.00, 0.00, 0.00, 10:46:32.774
70, 8118.42, -187500.02, -187500.02, -110216.29, -181559.19, -74793.07, -187500.02, -128375.38, 0.00, 0.00, 0.00, 10:46:32.779
71, 8013.97, -187500.02, -187500.02, -110231.70, -181572.58, -74808.41, -187500.02, -128385.60, 0.00, 0.00, 0.00, 10:46:32.784
72, 8081.21, -187500.02, -187500.02, -110217.16, -181556.31, -74792.53, -187500.02, -128365.53, 0.00, 0.00, 0.00, 10:46:32.786
73, 8223.85, -187500.02, -187500.02, -110226.66, -181566.19, -74799.82, -187500.02, -128371.96, 0.01, -0.55, 0.85, 10:46:32.791
74, 8183.69, -187500.02, -187500.02, -110261.33, -181601.97, -74833.70, -187500.02, -128411.86, 0.00, 0.00, 0.00, 10:46:32.795
75, 7983.80, -187500.02, -187500.02, -110251.16, -181591.47, -74824.88, -187500.02, -128410.84, 0.00, 0.00, 0.00, 10:46:32.798
76, 7986.52, -187500.02, -187500.02, -110222.05, -181562.14, -74796.38, -187500.02, -128384.93, 0.00, 0.00, 0.00, 10:46:32.802
77, 8184.27, -187500.02, -187500.02, -110226.87, -181567.13, -74799.88, -187500.02, -128387.37, 0.00, 0.00, 0.00, 10:46:32.807
78, 8223.27, -187500.02, -187500.02, -110254.40, -181594.22, -74825.84, -187500.02, -128413.72, 0.00, 0.00, 0.00, 10:46:32.812
79, 8158.07, -187500.02, -187500.02, -110308.45, -181647.45, -74877.42, -187500.02, -128465.20, 0.00, 0.00, 0.00, 10:46:32.814
80, 8102.48, -187500.02, -187500.02, -110315.55, -181652.78, -74879.86, -187500.02, -128472.57, 0.00, 0.00, 0.00, 10:46:32.819
81, 8204.05, -187500.02, -187500.02, -110309.23, -181646.61, -74872.51, -187500.02, -128474.18, 0.00, 0.00, 0.00, 10:46:32.823
82, 8169.38, -187500.02, -187500.02, -110285.38, -181619.55, -74848.77, -187500.02, -128455.94, 0.00, 0.00, 0.00, 10:46:32.826
83, 8034.67, -187500.02, -187500.02, -110271.21, -181603.25, -74832.19, -187500.02, -128439.09, 0.01, -0.54, 0.86, 10:46:32.831
84, 8018.46, -187500.02, -187500.02, -110281.78, -181614.22, -74840.99, -187500.02, -128445.34, 0.00, 0.00, 0.00, 10:46:32.835
85, 8173.83, -187500.02, -187500.02, -110291.08, -181623.98, -74848.70, -187500.02, -128450.11, 0.00, 0.00, 0.00, 10:46:32.839
86, 8286.22, -187500.02, -187500.02, -110333.62, -181665.50, -74890.39, -187500.02, -128490.98, 0.00, 0.00, 0.00, 10:46:32.843
87, 8114.17, -187500.02, -187500.02, -110341.75, -181672.09, -74896.70, -187500.02, -128505.13, 0.00, 0.00, 0.00, 10:46:32.845
88, 7947.05, -187500.02, -187500.02, -110305.81, -181634.27, -74859.77, -187500.02, -128477.15, 0.00, 0.00, 0.00, 10:46:32.850
89, 8118.62, -187500.02, -187500.02, -110303.55, -181631.44, -74857.15, -187500.02, -128476.05, 0.00, 0.00, 0.00, 10:46:32.855
90, 8263.08, -187500.02, -187500.02, -110321.50, -181646.39, -74871.03, -187500.02, -128490.48, 0.00, 0.00, 0.00, 10:46:32.859
91, 8224.79, -187500.02, -187500.02, -110346.11, -181668.56, -74892.91, -187500.02, -128512.96, 0.00, 0.00, 0.00, 10:46:32.862
92, 8172.71, -187500.02, -187500.02, -110427.16, -181749.16, -74970.79, -187500.02, -128597.23, 0.00, 0.00, 0.00, 10:46:32.867
93, 8143.84, -187500.02, -187500.02, -110404.88, -181722.20, -74942.47, -187500.02, -128580.75, 0.01, -0.54, 0.86, 10:46:32.871
94, 8191.87, -187500.02, -187500.02, -110360.10, -181674.61, -74895.58, -187500.02, -128539.36, 0.00, 0.00, 0.00, 10:46:32.873
95, 8169.88, -187500.02, -187500.02, -110380.33, -181694.23, -74913.43, -187500.02, -128557.55, 0.00, 0.00, 0.00, 10:46:32.899
96, 8041.06, -187500.02, -187500.02, -110386.03, -181698.38, -74916.80, -187500.02, -128558.34, 0.00, 0.00, 0.00, 10:46:32.899
97, 8108.30, -187500.02, -187500.02, -110387.38, -181697.45, -74916.43, -187500.02, -128553.17, 0.00, 0.00, 0.00, 10:46:32.899
98, 8229.93, -187500.02, -187500.02, -110385.12, -181693.91, -74914.55, -187500.02, -128551.25, 0.00, 0.00, 0.00, 10:46:32.899
99, 8184.18, -187500.02, -187500.02, -110398.64, -181707.31, -74927.54, -187500.02, -128575.14, 0.00, 0.00, 0.00, 10:46:32.899
100, 7998.84, -187500.02, -187500.02, -110397.38, -181703.58, -74924.07, -187500.02, -128582.52, 0.00, 0.00, 0.00, 10:46:32.899
101, 7993.01, -187500.02, -187500.02, -110366.80, -181671.42, -74893.95, -187500.02, -128552.16, 0.00, 0.00, 0.00, 10:46:32.902
102, 8141.60, -187500.02, -187500.02, -110345.59, -181648.78, -74873.47, -187500.02, -128526.20, 0.00, 0.00, 0.00, 10:46:32.907
103, 8242.03, -187500.02, -187500.02, -110391.55, -181693.55, -74919.91, -187500.02, -128570.27, 0.01, -0.55, 0.85, 10:46:32.910
104, 8131.48, -187500.02, -187500.02, -110424.25, -181722.77, -74950.91, -187500.02, -128602.08, 0.00, 0.00, 0.00, 10:46:32.915
105, 8131.43, -187500.02, -187500.02, -110457.00, -181755.69, -74981.65, -187500.02, -128642.13, 0.00, 0.00, 0.00, 10:46:32.919
106, 8200.99, -187500.02, -187500.02, -110436.75, -181736.16, -74959.66, -187500.02, -128634.06, 0.00, 0.00, 0.00, 10:46:32.921
107, 8178.30, -187500.02, -187500.02, -110404.29, -181702.38, -74926.09, -187500.02, -128606.03, 0.00, 0.00, 0.00, 10:46:32.926
108, 8035.30, -187500.02, -187500.02, -110397.45, -181695.47, -74919.27, -187500.02, -128596.71, 0.00, 0.00, 0.00, 10:46:32.929
109, 8071.42, -187500.02, -187500.02, -110450.00, -181749.89, -74970.14, -187500.02, -128646.40, 0.00, 0.00, 0.00, 10:46:32.935
110, 8206.96, -187500.02, -187500.02, -110464.53, -181764.83, -74984.31, -187500.02, -128658.73, 0.00, 0.00, 0.00, 10:46:32.939
111, 8256.00, -187500.02, -187500.02, -110468.82, -181769.55, -74989.81, -187500.02, -128668.48, 0.00, 0.00, 0.00, 10:46:32.942
112, 8078.32, -187500.02, -187500.02, -110457.09, -181756.36, -74976.27, -187500.02, -128664.59, 0.00, 0.00, 0.00, 10:46:32.946
113, 7934.47, -187500.02, -187500.02, -110419.58, -181714.80, -74937.17, -187500.02, -128630.51, 0.00, -0.53, 0.86, 10:46:32.951
114, 8127.81, -187500.02, -187500.02, -110421.50, -181716.03, -74940.88, -187500.02, -128631.49, 0.00, 0.00, 0.00, 10:46:32.954
115, 8234.56, -187500.02, -187500.02, -110432.66, -181727.19, -74951.79, -187500.02, -128641.66, 0.00, 0.00, 0.00, 10:46:32.957
116, 8229.98, -187500.02, -187500.02, -110479.55, -181772.84, -74998.35, -187500.02, -128687.03, 0.00, 0.00, 0.00, 10:46:32.962
117, 8163.15, -187500.02, -187500.02, -110553.78, -181844.44, -75070.32, -187500.02, -128763.23, 0.00, 0.00, 0.00, 10:46:32.967
118, 8128.88, -187500.02, -187500.02, -110521.41, -181807.83, -75035.72, -187500.02, -128737.23, 0.00, 0.00, 0.00, 10:46:32.971
119, 8195.13, -187500.02, -187500.02, -110482.16, -181767.22, -74996.83, -187500.02, -128700.16, 0.00, 0.00, 0.00, 10:46:32.975
120, 8196.21, -187500.02, -187500.02, -110512.99, -181793.81, -75025.70, -187500.02, -128726.73, 0.00, 0.00, 0.00, 10:46:32.978
121, 8065.25, -187500.02, -187500.02, -110524.37, -181802.13, -75035.01, -187500.02, -128734.40, 0.00, 0.00, 0.00, 10:46:32.982
122, 8170.66, -187500.02, -187500.02, -110556.91, -181833.25, -75066.23, -187500.02, -128763.19, -0.00, -0.53, 0.85, 10:46:32.986
123, 8239.48, -187500.02, -187500.02, -110548.53, -181824.55, -75055.81, -187500.02, -128759.99, 0.00, 0.00, 0.00, 10:46:32.991
124, 8131.65, -187500.02, -187500.02, -110509.16, -181785.25, -75016.68, -187500.02, -128730.66, 0.00, 0.00, 0.00, 10:46:32.994
125, 7948.48, -187500.02, -187500.02, -110474.25, -181749.73, -74982.05, -187500.02, -128698.97, 0.00, 0.00, 0.00, 10:46:32.998
126, 8071.73, -187500.02, -187500.02, -110512.63, -181786.78, -75019.13, -187500.02, -128734.06, 0.00, 0.00, 0.00, 10:46:33.003
127, 8239.88, -187500.02, -187500.02, -110516.19, -181787.42, -75020.59, -187500.02, -128732.86, 0.00, 0.00, 0.00, 10:46:33.006
128, 8292.05, -187500.02, -187500.02, -110546.59, -181815.70, -75047.19, -187500.02, -128762.63, 0.00, 0.00, 0.00, 10:46:33.009
129, 8123.32, -187500.02, -187500.02, -110567.95, -181835.03, -75065.72, -187500.02, -128792.22, 0.00, 0.00, 0.00, 10:46:33.014
130, 8098.86, -187500.02, -187500.02, -110586.28, -181850.45, -75080.63, -187500.02, -128818.71, 0.00, 0.00, 0.00, 10:46:33.019
131, 8220.52, -187500.02, -187500.02, -110585.01, -181844.89, -75075.98, -187500.02, -128817.66, 0.00, 0.00, 0.00, 10:46:33.022
132, 8242.74, -187500.02, -187500.02, -110579.44, -181837.30, -75069.65, -187500.02, -128809.12, 0.00, -0.54, 0.86, 10:46:33.027
133, 8127.94, -187500.02, -187500.02, -110595.96, -181853.88, -75085.07, -187500.02, -128823.20, 0.00, 0.00, 0.00, 10:46:33.030
134, 8070.03, -187500.02, -187500.02, -110591.09, -181848.56, -75079.02, -187500.02, -128814.09, 0.00, 0.00, 0.00, 10:46:33.033
135, 8214.13, -187500.02, -187500.02, -110603.78, -181858.34, -75089.16, -187500.02, -128825.08, 0.00, 0.00, 0.00, 10:46:33.038
136, 8197.43, -187500.02, -187500.02, -110573.16, -181825.27, -75057.05, -187500.02, -128803.20, 0.00, 0.00, 0.00, 10:46:33.042
137, 8022.73, -187500.02, -187500.02, -110534.42, -181786.53, -75019.34, -187500.02, -128774.25, 0.00, 0.00, 0.00, 10:46:33.046
138, 7962.34, -187500.02, -187500.02, -110519.34, -181770.73, -75003.60, -187500.02, -128761.17, 0.00, 0.00, 0.00, 10:46:33.051
139, 8180.83, -187500.02, -187500.02, -110555.93, -181805.48, -75038.13, -187500.02, -128796.36, 0.00, 0.00, 0.00, 10:46:33.055
140, 8358.26, -187500.02, -187500.02, -110606.09, -181855.03, -75087.09, -187500.02, -128847.66, 0.00, 0.00, 0.00, 10:46:33.058
141, 8319.72, -187500.02, -187500.02, -110700.36, -181946.05, -75175.84, -187500.02, -128945.69, 0.00, 0.00, 0.00, 10:46:33.061
142, 8077.45, -187500.02, -187500.02, -110680.05, -181920.42, -75151.32, -187500.02, -128932.55, 0.00, -0.53, 0.86, 10:46:33.066
143, 8113.82, -187500.02, -187500.02, -110647.30, -181883.11, -75116.16, -187500.02, -128904.67, 0.00, 0.00, 0.00, 10:46:33.072
144, 8234.74, -187500.02, -187500.02, -110635.48, -181867.23, -75102.95, -187500.02, -128888.55, 0.00, 0.00, 0.00, 10:46:33.075
145, 8160.13, -187500.02, -187500.02, -110625.06, -181852.61, -75090.33, -187500.02, -128872.69, 0.00, 0.00, 0.00, 10:46:33.078
146, 8069.72, -187500.02, -187500.02, -110655.84, -181880.92, -75117.57, -187500.02, -128899.42, 0.00, 0.00, 0.00, 10:46:33.083
147, 8163.46, -187500.02, -187500.02, -110699.63, -181922.89, -75158.74, -187500.02, -128944.20, 0.00, 0.00, 0.00, 10:46:33.086
148, 8231.34, -187500.02, -187500.02, -110696.20, -181918.06, -75154.20, -187500.02, -128950.41, 0.00, 0.00, 0.00, 10:46:33.090
149, 8131.09, -187500.02, -187500.02, -110664.22, -181883.72, -75119.98, -187500.02, -128925.13, 0.00, 0.00, 0.00, 10:46:33.093
150, 8028.84, -187500.02, -187500.02, -110674.08, -181892.83, -75128.21, -187500.02, -128932.70, 0.00, 0.00, 0.00, 10:46:33.098
151, 8076.44, -187500.02, -187500.02, -110690.08, -181909.23, -75142.85, -187500.02, -128944.73, 0.00, 0.00, 0.00, 10:46:33.102
152, 8242.45, -187500.02, -187500.02, -110690.64, -181907.77, -75140.80, -187500.02, -128941.09, 0.00, -0.53, 0.86, 10:46:33.107
153, 8305.86, -187500.02, -187500.02, -110743.57, -181955.17, -75188.70, -187500.02, -128996.43, 0.00, 0.00, 0.00, 10:46:33.111
154, 8157.31, -187500.02, -187500.02, -110769.25, -181975.48, -75210.35, -187500.02, -129029.95, 0.00, 0.00, 0.00, 10:46:33.114
155, 8087.33, -187500.02, -187500.02, -110773.25, -181976.72, -75212.03, -187500.02, -129039.59, 0.00, 0.00, 0.00, 10:46:33.117
156, 8178.55, -187500.02, -187500.02, -110730.76, -181933.06, -75171.02, -187500.02, -128997.19, 0.00, 0.00, 0.00, 10:46:33.122
157, 8227.27, -187500.02, -187500.02, -110727.41, -181929.72, -75168.42, -187500.02, -128991.80, 0.00, 0.00, 0.00, 10:46:33.126
158, 8115.54, -187500.02, -187500.02, -110746.09, -181950.66, -75187.82, -187500.02, -129009.17, 0.00, 0.00, 0.00, 10:46:33.130
159, 8065.96, -187500.02, -187500.02, -110753.31, -181958.86, -75194.40, -187500.02, -129012.12, 0.00, 0.00, 0.00, 10:46:33.135
160, 8186.75, -187500.02, -187500.02, -110746.36, -181952.52, -75186.08, -187500.02, -129001.66, 0.00, 0.00, 0.00, 10:46:33.137
161, 8203.20, -187500.02, -187500.02, -110738.61, -181943.58, -75177.95, -187500.02, -128999.00, 0.00, 0.00, 0.00, 10:46:33.141
162, 8093.70, -187500.02, -187500.02, -110759.02, -181962.53, -75196.23, -187500.02, -129027.83, 0.01, -0.54, 0.85, 10:46:33.146
163, 7978.66, -187500.02, -187500.02, -110755.28, -181957.31, -75191.06, -187500.02, -129031.01, 0.00, 0.00, 0.00, 10:46:33.150
164, 8106.44, -187500.02, -187500.02, -110738.14, -181939.23, -75174.91, -187500.02, -129013.17, 0.00, 0.00, 0.00, 10:46:33.153
165, 8231.75, -187500.02, -187500.02, -110730.36, -181932.28, -75167.70, -187500.02, -129003.40, 0.00, 0.00, 0.00, 10:46:33.158
166, 8246.30, -187500.02, -187500.02, -110782.20, -181984.45, -75219.18, -187500.02, -129054.07, 0.00, 0.00, 0.00, 10:46:33.163
167, 8141.29, -187500.02, -187500.02, -110825.48, -182027.86, -75260.49, -187500.02, -129098.35, 0.00, 0.00, 0.00, 10:46:33.165
168, 8160.15, -187500.02, -187500.02, -110818.07, -182018.45, -75250.03, -187500.02, -129098.59, 0.00, 0.00, 0.00, 10:46:33.170
169, 8216.68, -187500.02, -187500.02, -110793.95, -181992.80, -75223.56, -187500.02, -129082.82, 0.00, 0.00, 0.00, 10:46:33.174
170, 8163.28, -187500.02, -187500.02, -110788.45, -181984.91, -75216.30, -187500.02, -129075.87, 0.00, 0.00, 0.00, 10:46:33.178
171, 8053.69, -187500.02, -187500.02, -110800.66, -181997.67, -75227.56, -187500.02, -129084.67, 0.00, -0.54, 0.85, 10:46:33.183
172, 8143.25, -187500.02, -187500.02, -110829.89, -182027.03, -75255.55, -187500.02, -129107.85, 0.00, 0.00, 0.00, 10:46:33.186
173, 8290.04, -187500.02, -187500.02, -110844.66, -182038.72, -75267.69, -187500.02, -129116.88, 0.00, 0.00, 0.00, 10:46:33.191
174, 8246.38, -187500.02, -187500.02, -110869.81, -182061.36, -75290.30, -187500.02, -129149.47, 0.00, 0.00, 0.00, 10:46:33.193
175, 8016.45, -187500.02, -187500.02, -110848.65, -182038.84, -75267.87, -187500.02, -129138.30, 0.00, 0.00, 0.00, 10:46:33.197
176, 8033.51, -187500.02, -187500.02, -110833.60, -182022.00, -75252.82, -187500.02, -129123.70, 0.00, 0.00, 0.00, 10:46:33.202
177, 8158.92, -187500.02, -187500.02, -110802.94, -181989.81, -75222.45, -187500.02, -129088.83, 0.00, 0.00, 0.00, 10:46:33.205
178, 8244.75, -187500.02, -187500.02, -110824.64, -182009.84, -75243.01, -187500.02, -129107.63, 0.00, 0.00, 0.00, 10:46:33.210
179, 8158.14, -187500.02, -187500.02, -110857.97, -182040.67, -75276.63, -187500.02, -129139.23, 0.00, 0.00, 0.00, 10:46:33.214
180, 8120.75, -187500.02, -187500.02, -110867.80, -182048.09, -75285.86, -187500.02, -129153.76, 0.00, 0.00, 0.00, 10:46:33.219
181, 8256.42, -187500.02, -187500.02, -110885.84, -182064.30, -75301.48, -187500.02, -129181.26, 0.00, -0.54, 0.86, 10:46:33.222
182, 8237.60, -187500.02, -187500.02, -110866.55, -182043.17, -75280.31, -187500.02, -129166.68, 0.00, 0.00, 0.00, 10:46:33.225
183, 8135.12, -187500.02, -187500.02, -110880.83, -182055.56, -75293.44, -187500.02, -129178.75, 0.00, 0.00, 0.00, 10:46:33.230
184, 8107.16, -187500.02, -187500.02, -110914.25, -182085.48, -75324.95, -187500.02, -129205.75, 0.00, 0.00, 0.00, 10:46:33.235
185, 8216.97, -187500.02, -187500.02, -110909.28, -182077.06, -75316.73, -187500.02, -129192.85, 0.00, 0.00, 0.00, 10:46:33.238
186, 8283.09, -187500.02, -187500.02, -110914.88, -182082.44, -75320.95, -187500.02, -129201.21, 0.00, 0.00, 0.00, 10:46:33.242
187, 8141.78, -187500.02, -187500.02, -110923.52, -182091.77, -75330.09, -187500.02, -129222.70, 0.00, 0.00, 0.00, 10:46:33.246
188, 8015.58, -187500.02, -187500.02, -110922.92, -182090.80, -75330.45, -187500.02, -129231.52, 0.00, 0.00, 0.00, 10:46:33.250
189, 8109.26, -187500.02, -187500.02, -110903.12, -182069.69, -75310.96, -187500.02, -129209.75, 0.00, 0.00, 0.00, 10:46:33.253
190, 8212.83, -187500.02, -187500.02, -110890.33, -182056.03, -75296.63, -187500.02, -129192.45, 0.00, 0.00, 0.00, 10:46:33.257
191, 8155.61, -187500.02, -187500.02, -110897.35, -182061.91, -75301.28, -187500.02, -129196.09, 0.00, -0.53, 0.86, 10:46:33.262
192, 8091.96, -187500.02, -187500.02, -110928.82, -182090.98, -75330.23, -187500.02, -129224.70, 0.00, 0.00, 0.00, 10:46:33.266
193, 8202.29, -187500.02, -187500.02, -110966.84, -182126.19, -75364.58, -187500.02, -129264.88, 0.00, 0.00, 0.00, 10:46:33.270
194, 8286.82, -187500.02, -187500.02, -110964.88, -182120.75, -75358.39, -187500.02, -129270.39, 0.00, 0.00, 0.00, 10:46:33.274
195, 8187.80, -187500.02, -187500.02, -110959.33, -182113.56, -75350.90, -187500.02, -129272.90, 0.00, 0.00, 0.00, 10:46:33.277
196, 8087.60, -187500.02, -187500.02, -110984.05, -182138.80, -75373.97, -187500.02, -129298.29, 0.00, 0.00, 0.00, 10:46:33.281
197, 8126.62, -187500.02, -187500.02, -110994.60, -182147.88, -75381.50, -187500.02, -129301.55, 0.00, 0.00, 0.00, 10:46:33.286
198, 8260.42, -187500.02, -187500.02, -110993.48, -182145.36, -75377.66, -187500.02, -129294.78, 0.00, 0.00, 0.00, 10:46:33.290
199, 8213.10, -187500.02, -187500.02, -110980.23, -182130.97, -75362.79, -187500.02, -129279.52, 0.00, 0.00, 0.00, 10:46:33.295
200, 8072.02, -187500.02, -187500.02, -110993.23, -182142.44, -75373.08, -187500.02, -129295.31, 0.00, 0.00, 0.00, 10:46:33.299
201, 7972.82, -187500.02, -187500.02, -110953.85, -182100.91, -75331.05, -187500.02, -129263.20, 0.00, -0.53, 0.86, 10:46:33.302
202, 8098.84, -187500.02, -187500.02, -110931.34, -182076.16, -75305.69, -187500.02, -129245.07, 0.00, 0.00, 0.00, 10:46:33.305
203, 8135.36, -187500.02, -187500.02, -110933.70, -182077.33, -75304.99, -187500.02, -129246.14, 0.00, 0.00, 0.00, 10:46:33.309
204, 8080.47, -187500.02, -187500.02, -110967.27, -182110.09, -75337.22, -187500.02, -129278.73, 0.00, 0.00, 0.00, 10:46:33.313
205, 8101.14, -187500.02, -187500.02, -111003.52, -182145.61, -75373.19, -187500.02, -129313.69, 0.00, 0.00, 0.00, 10:46:33.318
206, 8284.76, -187500.02, -187500.02, -111043.48, -182183.27, -75412.01, -187500.02, -129356.11, 0.00, 0.00, 0.00, 10:46:33.322
207, 8277.37, -187500.02, -187500.02, -111067.94, -182204.17, -75433.63, -187500.02, -129389.59, 0.00, 0.00, 0.00, 10:46:33.326
208, 8053.62, -187500.02, -187500.02, -111032.82, -182165.17, -75395.54, -187500.02, -129360.63, 0.00, 0.00, 0.00, 10:46:33.329
209, 7998.04, -187500.02, -187500.02, -111029.18, -182157.69, -75388.72, -187500.02, -129353.38, 0.00, 0.00, 0.00, 10:46:33.333
210, 8148.19, -187500.02, -187500.02, -111046.86, -182172.97, -75404.08, -187500.02, -129364.65, 0.00, -0.54, 0.85, 10:46:33.337
211, 8258.88, -187500.02, -187500.02, -111065.45, -182189.39, -75417.96, -187500.02, -129380.14, 0.00, 0.00, 0.00, 10:46:33.341
212, 8140.13, -187500.02, -187500.02, -111091.09, -182214.41, -75439.64, -187500.02, -129407.81, 0.00, 0.00, 0.00, 10:46:33.346
213, 7969.04, -187500.02, -187500.02, -111073.62, -182196.75, -75419.32, -187500.02, -129399.25, 0.00, 0.00, 0.00, 10:46:33.350
214, 8065.49, -187500.02, -187500.02, -111054.57, -182177.17, -75398.34, -187500.02, -129385.46, 0.00, 0.00, 0.00, 10:46:33.353
215, 8228.53, -187500.02, -187500.02, -111087.30, -182208.27, -75428.44, -187500.02, -129416.59, 0.00, 0.00, 0.00, 10:46:33.357
216, 8128.57, -187500.02, -187500.02, -111083.49, -182201.64, -75421.24, -187500.02, -129409.78, 0.00, 0.00, 0.00, 10:46:33.361
217, 8005.23, -187500.02, -187500.02, -111054.35, -182171.00, -75391.16, -187500.02, -129376.90, 0.00, 0.00, 0.00, 10:46:33.365
218, 8162.25, -187500.02, -187500.02, -111097.55, -182214.45, -75434.09, -187500.02, -129422.59, 0.00, 0.00, 0.00, 10:46:33.369
219, 8207.05, -187500.02, -187500.02, -111073.70, -182189.59, -75409.40, -187500.02, -129410.56, 0.00, 0.00, 0.00, 10:46:33.374
220, 8170.59, -187500.02, -187500.02, -111091.79, -182206.86, -75425.47, -187500.02, -129442.34, 0.01, -0.54, 0.86, 10:46:33.379
221, 8020.05, -187500.02, -187500.02, -111096.52, -182211.39, -75429.20, -187500.02, -129450.44, 0.00, 0.00, 0.00, 10:46:33.381
222, 8077.34, -187500.02, -187500.02, -111102.18, -182215.64, -75433.09, -187500.02, -129449.54, 0.00, 0.00, 0.00, 10:46:33.385
223, 8178.53, -187500.02, -187500.02, -111083.85, -182195.19, -75413.15, -187500.02, -129424.76, 0.00, 0.00, 0.00, 10:46:33.390
224, 8149.29, -187500.02, -187500.02, -111060.27, -182168.86, -75386.30, -187500.02, -129395.16, 0.00, 0.00, 0.00, 10:46:33.393
225, 8048.73, -187500.02, -187500.02, -111095.12, -182201.73, -75418.00, -187500.02, -129427.86, 0.00, 0.00, 0.00, 10:46:33.397
226, 8048.84, -187500.02, -187500.02, -111115.01, -182221.06, -75435.15, -187500.02, -129455.60, 0.00, 0.00, 0.00, 10:46:33.402
227, 8148.31, -187500.02, -187500.02, -111118.19, -182222.34, -75435.28, -187500.02, -129468.77, 0.00, 0.00, 0.00, 10:46:33.406
228, 8099.47, -187500.02, -187500.02, -111076.48, -182178.80, -75392.14, -187500.02, -129430.32, 0.00, 0.00, 0.00, 10:46:33.409
229, 8053.74, -187500.02, -187500.02, -111101.31, -182202.03, -75415.38, -187500.02, -129452.16, 0.00, 0.00, 0.00, 10:46:33.413
230, 8078.48, -187500.02, -187500.02, -111132.47, -182232.64, -75445.23, -187500.02, -129480.19, 0.00, -0.54, 0.85, 10:46:33.417
231, 8262.72, -187500.02, -187500.02, -111172.23, -182273.02, -75482.45, -187500.02, -129517.78, 0.00, 0.00, 0.00, 10:46:33.422
232, 8284.88, -187500.02, -187500.02, -111190.54, -182290.78, -75498.06, -187500.02, -129542.80, 0.00, 0.00, 0.00, 10:46:33.425
233, 8125.22, -187500.02, -187500.02, -111203.70, -182299.77, -75506.20, -187500.02, -129563.72, 0.00, 0.00, 0.00, 10:46:33.429
234, 8013.73, -187500.02, -187500.02, -111197.49, -182290.00, -75495.00, -187500.02, -129558.26, 0.00, 0.00, 0.00, 10:46:33.434
235, 8143.14, -187500.02, -187500.02, -111185.28, -182274.98, -75478.84, -187500.02, -129539.40, 0.00, 0.00, 0.00, 10:46:33.437
236, 8232.13, -187500.02, -187500.02, -111185.13, -182273.47, -75477.95, -187500.02, -129537.25, 0.00, 0.00, 0.00, 10:46:33.441
237, 8097.05, -187500.02, -187500.02, -111182.13, -182270.52, -75475.40, -187500.02, -129534.77, 0.00, 0.00, 0.00, 10:46:33.445
238, 8019.76, -187500.02, -187500.02, -111200.23, -182288.27, -75491.83, -187500.02, -129554.15, 0.00, 0.00, 0.00, 10:46:33.449
239, 8072.56, -187500.02, -187500.02, -111189.35, -182276.22, -75478.73, -187500.02, -129551.06, 0.00, 0.00, 0.00, 10:46:33.455
240, 8129.51, -187500.02, -187500.02, -111165.30, -182249.84, -75452.47, -187500.02, -129535.98, 0.01, -0.54, 0.84, 10:46:33.458
241, 8129.02, -187500.02, -187500.02, -111188.88, -182270.28, -75472.88, -187500.02, -129560.77, 0.00, 0.00, 0.00, 10:46:33.462
242, 8090.62, -187500.02, -187500.02, -111243.94, -182323.27, -75525.18, -187500.02, -129614.45, 0.00, 0.00, 0.00, 10:46:33.465
243, 8170.23, -187500.02, -187500.02, -111254.64, -182331.69, -75533.34, -187500.02, -129622.27, 0.00, 0.00, 0.00, 10:46:33.470
244, 8336.40, -187500.02, -187500.02, -111298.32, -182373.16, -75574.22, -187500.02, -129665.66, 0.00, 0.00, 0.00, 10:46:33.474
245, 8221.78, -187500.02, -187500.02, -111310.92, -182383.50, -75583.92, -187500.02, -129687.52, 0.00, 0.00, 0.00, 10:46:33.477
246, 8024.37, -187500.02, -187500.02, -111294.07, -182365.22, -75566.30, -187500.02, -129682.02, 0.00, 0.00, 0.00, 10:46:33.481
247, 8035.70, -187500.02, -187500.02, -111284.64, -182356.67, -75557.09, -187500.02, -129678.78, 0.00, 0.00, 0.00, 10:46:33.487
248, 8215.85, -187500.02, -187500.02, -111299.63, -182371.44, -75571.85, -187500.02, -129692.33, 0.00, 0.00, 0.00, 10:46:33.489
249, 8205.28, -187500.02, -187500.02, -111302.32, -182373.55, -75574.58, -187500.02, -129693.69, 0.00, 0.00, 0.00, 10:46:33.492
250, 8067.95, -187500.02, -187500.02, -111305.05, -182376.17, -75576.77, -187500.02, -129692.13, 0.00, -0.54, 0.85, 10:46:33.497
251, 8073.96, -187500.02, -187500.02, -111327.95, -182397.84, -75597.45, -187500.02, -129711.66, 0.00, 0.00, 0.00, 10:46:33.502
252, 8151.57, -187500.02, -187500.02, -111320.89, -182388.11, -75587.38, -187500.02, -129710.97, 0.00, 0.00, 0.00, 10:46:33.505
253, 8075.62, -187500.02, -187500.02, -111250.98, -182314.55, -75515.55, -187500.02, -129647.02, 0.00, 0.00, 0.00, 10:46:33.510
254, 8045.35, -187500.02, -187500.02, -111281.48, -182343.92, -75544.73, -187500.02, -129676.08, 0.00, 0.00, 0.00, 10:46:33.513
255, 8066.81, -187500.02, -187500.02, -111318.88, -182381.98, -75580.79, -187500.02, -129710.16, 0.00, 0.00, 0.00, 10:46:33.517
0, 8255.42, -187500.02, -187500.02, -111357.03, -182421.09, -75618.38, -187500.02, -129749.55, 0.00, 0.00, 0.00, 10:46:33.521
1, 8277.48, -187500.02, -187500.02, -111384.91, -182447.20, -75644.80, -187500.02, -129787.21, 0.00, 0.00, 0.00, 10:46:33.525
2, 8118.40, -187500.02, -187500.02, -111384.75, -182445.50, -75643.24, -187500.02, -129798.79, 0.00, 0.00, 0.00, 10:46:33.529
3, 8055.10, -187500.02, -187500.02, -111404.35, -182465.38, -75662.69, -187500.02, -129822.86, 0.00, -0.54, 0.84, 10:46:33.533
4, 8129.60, -187500.02, -187500.02, -111386.27, -182444.45, -75641.70, -187500.02, -129799.41, 0.00, 0.00, 0.00, 10:46:33.538
5, 8202.06, -187500.02, -187500.02, -111368.26, -182422.23, -75621.96, -187500.02, -129775.77, 0.00, 0.00, 0.00, 10:46:33.543
6, 8127.05, -187500.02, -187500.02, -111384.98, -182437.33, -75637.34, -187500.02, -129788.62, 0.00, 0.00, 0.00, 10:46:33.545
7, 7979.26, -187500.02, -187500.02, -111380.23, -182430.70, -75631.84, -187500.02, -129789.67, 0.00, 0.00, 0.00, 10:46:33.549
8, 8012.34, -187500.02, -187500.02, -111351.72, -182400.67, -75602.63, -187500.02, -129770.67, 0.00, 0.00, 0.00, 10:46:33.552
9, 8128.59, -187500.02, -187500.02, -111333.86, -182383.52, -75582.66, -187500.02, -129755.59, 0.00, 0.00, 0.00, 10:46:33.557
10, 8136.73, -187500.02, -187500.02, -111355.16, -182405.22, -75600.62, -187500.02, -129774.27, 0.00, 0.00, 0.00, 10:46:33.561
11, 8099.22, -187500.02, -187500.02, -111406.88, -182458.36, -75650.13, -187500.02, -129824.09, 0.00, 0.00, 0.00, 10:46:33.567
12, 8196.85, -187500.02, -187500.02, -111447.36, -182496.83, -75685.62, -187500.02, -129861.30, 0.00, 0.00, 0.00, 10:46:33.571
13, 8245.87, -187500.02, -187500.02, -111443.45, -182491.06, -75677.69, -187500.02, -129862.73, 0.00, -0.53, 0.85, 10:46:33.573
14, 8142.02, -187500.02, -187500.02, -111428.63, -182475.28, -75661.39, -187500.02, -129859.30, 0.00, 0.00, 0.00, 10:46:33.577
15, 8005.46, -187500.02, -187500.02, -111429.23, -182475.45, -75659.94, -187500.02, -129864.91, 0.00, 0.00, 0.00, 10:46:33.581
16, 8026.73, -187500.02, -187500.02, -111419.62, -182465.67, -75650.28, -187500.02, -129851.31, 0.00, 0.00, 0.00, 10:46:33.585
17, 8162.99, -187500.02, -187500.02, -111408.34, -182453.58, -75639.06, -187500.02, -129836.36, 0.00, 0.00, 0.00, 10:46:33.590
18, 8203.87, -187500.02, -187500.02, -111431.29, -182476.97, -75661.13, -187500.02, -129859.72, 0.00, 0.00, 0.00, 10:46:33.593
19, 8077.23, -187500.02, -187500.02, -111457.10, -182504.64, -75685.98, -187500.02, -129890.66, 0.00, 0.00, 0.00, 10:46:33.596
20, 7976.96, -187500.02, -187500.02, -111424.85, -182470.69, -75651.13, -187500.02, -129868.30, 0.00, 0.00, 0.00, 10:46:33.601
21, 8111.29, -187500.02, -187500.02, -111433.03, -182477.88, -75658.33, -187500.02, -129885.71, 0.00, 0.00, 0.00, 10:46:33.604
22, 8125.71, -187500.02, -187500.02, -111401.91, -182448.44, -75628.04, -187500.02, -129857.75, 0.00, 0.00, 0.00, 10:46:33.608
23, 8027.54, -187500.02, -187500.02, -111396.09, -182442.36, -75622.05, -187500.02, -129849.95, 0.00, -0.54, 0.85, 10:46:33.614
24, 8097.92, -187500.02, -187500.02, -111464.10, -182508.95, -75686.87, -187500.02, -129914.46, 0.00, 0.00, 0.00, 10:46:33.618
25, 8285.61, -187500.02, -187500.02, -111538.76, -182581.47, -75755.80, -187500.02, -129988.22, 0.00, 0.00, 0.00, 10:46:33.621
26, 8268.63, -187500.02, -187500.02, -111532.34, -182571.95, -75746.17, -187500.02, -129991.28, 0.00, 0.00, 0.00, 10:46:33.625
27, 8091.42, -187500.02, -187500.02, -111502.66, -182543.05, -75717.07, -187500.02, -129971.08, 0.00, 0.00, 0.00, 10:46:33.628
28, 8034.20, -187500.02, -187500.02, -111523.78, -182564.70, -75739.22, -187500.02, -129991.30, 0.00, 0.00, 0.00, 10:46:33.633
29, 8164.71, -187500.02, -187500.02, -111538.60, -182581.42, -75755.00, -187500.02, -130003.06, 0.00, 0.00, 0.00, 10:46:33.636
30, 8251.62, -187500.02, -187500.02, -111534.48, -182576.42, -75750.02, -187500.02, -129995.88, 0.00, 0.00, 0.00, 10:46:33.641
31, 8202.08, -187500.02, -187500.02, -111577.40, -182618.31, -75790.88, -187500.02, -130039.18, 0.00, 0.00, 0.00, 10:46:33.645
32, 8047.88, -187500.02, -187500.02, -111600.67, -182639.31, -75809.74, -187500.02, -130068.13, 0.00, 0.00, 0.00, 10:46:33.650
33, 8036.64, -187500.02, -187500.02, -111551.54, -182588.11, -75758.27, -187500.02, -130025.88, 0.00, -0.53, 0.85, 10:46:33.652
34, 8159.88, -187500.02, -187500.02, -111519.42, -182553.94, -75724.89, -187500.02, -129993.41, 0.00, 0.00, 0.00, 10:46:33.656
35, 8199.49, -187500.02, -187500.02, -111562.94, -182597.14, -75768.43, -187500.02, -130035.78, 0.00, 0.00, 0.00, 10:46:33.661
36, 8119.83, -187500.02, -187500.02, -111594.41, -182627.52, -75801.22, -187500.02, -130066.43, 0.00, 0.00, 0.00, 10:46:33.665
37, 8209.21, -187500.02, -187500.02, -111640.19, -182672.73, -75846.53, -187500.02, -130114.82, 0.00, 0.00, 0.00, 10:46:33.669
38, 8257.67, -187500.02, -187500.02, -111642.51, -182674.20, -75846.15, -187500.02, -130125.75, 0.00, 0.00, 0.00, 10:46:33.673
39, 8171.46, -187500.02, -187500.02, -111625.08, -182657.58, -75828.23, -187500.02, -130119.54, 0.00, 0.00, 0.00, 10:46:33.678
40, 8051.79, -187500.02, -187500.02, -111634.87, -182667.92, -75835.48, -187500.02, -130131.45, 0.00, 0.00, 0.00, 10:46:33.680
41, 8118.31, -187500.02, -187500.02, -111674.05, -182705.88, -75871.32, -187500.02, -130163.50, 0.00, 0.00, 0.00, 10:46:33.684
42, 8205.12, -187500.02, -187500.02, -111651.23, -182682.52, -75846.38, -187500.02, -130134.06, 0.01, -0.53, 0.85, 10:46:33.689
43, 8201.82, -187500.02, -187500.02, -111630.38, -182663.19, -75825.77, -187500.02, -130112.23, 0.00, 0.00, 0.00, 10:46:33.693
44, 8097.72, -187500.02, -187500.02, -111677.54, -182711.22, -75872.79, -187500.02, -130163.84, 0.00, 0.00, 0.00, 10:46:33.696
45, 8012.27, -187500.02, -187500.02, -111669.31, -182700.41, -75862.71, -187500.02, -130164.91, 0.00, 0.00, 0.00, 10:46:33.701
46, 8095.53, -187500.02, -187500.02, -111637.28, -182666.92, -75828.40, -187500.02, -130140.63, 0.00, 0.00, 0.00, 10:46:33.705
47, 8154.83, -187500.02, -187500.02, -111627.45, -182656.28, -75815.66, -187500.02, -130130.45, 0.00, 0.00, 0.00, 10:46:33.708
48, 8090.93, -187500.02, -187500.02, -111642.69, -182671.77, -75830.01, -187500.02, -130143.45, 0.00, 0.00, 0.00, 10:46:33.713
49, 8100.96, -187500.02, -187500.02, -111687.17, -182716.03, -75873.22, -187500.02, -130185.05, 0.00, 0.00, 0.00, 10:46:33.717
50, 8211.54, -187500.02, -187500.02, -111705.86, -182732.20, -75888.44, -187500.02, -130201.79, 0.00, 0.00, 0.00, 10:46:33.723
51, 8263.08, -187500.02, -187500.02, -111720.14, -182744.03, -75898.81, -187500.02, -130222.73, 0.00, 0.00, 0.00, 10:46:33.726
52, 8073.65, -187500.02, -187500.02, -111704.76, -182728.72, -75881.09, -187500.02, -130217.48, 0.01, -0.53, 0.85, 10:46:33.729
53, 7984.65, -187500.02, -187500.02, -111700.89, -182726.00, -75874.54, -187500.02, -130215.49, 0.00, 0.00, 0.00, 10:46:33.732
54, 8126.16, -187500.02, -187500.02, -111723.78, -182749.52, -75895.50, -187500.02, -130236.19, 0.00, 0.00, 0.00, 10:46:33.737
55, 8233.22, -187500.02, -187500.02, -111727.80, -182751.09, -75896.17, -187500.02, -130236.70, 0.00, 0.00, 0.00, 10:46:33.741
56, 8153.09, -187500.02, -187500.02, -111731.52, -182751.70, -75896.73, -187500.02, -130236.81, 0.00, 0.00, 0.00, 10:46:33.744
57, 8032.34, -187500.02, -187500.02, -111752.03, -182770.05, -75914.77, -187500.02, -130257.67, 0.00, 0.00, 0.00, 10:46:33.748
58, 8019.29, -187500.02, -187500.02, -111721.23, -182736.75, -75881.89, -187500.02, -130235.07, 0.00, 0.00, 0.00, 10:46:33.754
59, 8077.27, -187500.02, -187500.02, -111672.59, -182685.78, -75830.80, -187500.02, -130192.73, 0.00, 0.00, 0.00, 10:46:33.758
60, 8069.29, -187500.02, -187500.02, -111652.32, -182662.83, -75807.75, -187500.02, -130172.80, 0.00, 0.00, 0.00, 10:46:33.760
61, 8085.10, -187500.02, -187500.02, -111723.63, -182734.59, -75876.28, -187500.02, -130243.72, 0.00, 0.00, 0.00, 10:46:33.765
62, 8195.80, -187500.02, -187500.02, -111792.27, -182803.38, -75941.63, -187500.02, -130310.24, 0.01, -0.54, 0.84, 10:46:33.769
63, 8240.73, -187500.02, -187500.02, -111786.97, -182796.31, -75933.63, -187500.02, -130307.94, 0.00, 0.00, 0.00, 10:46:33.773
64, 8149.29, -187500.02, -187500.02, -111757.24, -182766.13, -75902.19, -187500.02, -130287.30, 0.00, 0.00, 0.00, 10:46:33.777
65, 8022.33, -187500.02, -187500.02, -111759.81, -182768.08, -75903.33, -187500.02, -130291.27, 0.00, 0.00, 0.00, 10:46:33.780
66, 8069.18, -187500.02, -187500.02, -111785.34, -182793.47, -75928.09, -187500.02, -130313.37, 0.00, 0.00, 0.00, 10:46:33.785
67, 8189.03, -187500.02, -187500.02, -111776.80, -182786.22, -75919.51, -187500.02, -130303.65, 0.00, 0.00, 0.00, 10:46:33.789
68, 8246.63, -187500.02, -187500.02, -111798.77, -182808.20, -75941.03, -187500.02, -130323.65, 0.00, 0.00, 0.00, 10:46:33.793
69, 8133.84, -187500.02, -187500.02, -111858.56, -182867.92, -75998.92, -187500.02, -130388.13, 0.00, 0.00, 0.00, 10:46:33.796
70, 7982.12, -187500.02, -187500.02, -111816.59, -182825.50, -75955.59, -187500.02, -130353.73, 0.00, 0.00, 0.00, 10:46:33.800
71, 8064.93, -187500.02, -187500.02, -111770.84, -182779.64, -75909.45, -187500.02, -130311.02, 0.00, 0.00, 0.00, 10:46:33.804
72, 8151.12, -187500.02, -187500.02, -111756.35, -182764.48, -75893.91, -187500.02, -130294.77, 0.01, -0.54, 0.86, 10:46:33.810
73, 8112.30, -187500.02, -187500.02, -111780.20, -182786.86, -75916.94, -187500.02, -130316.23, 0.00, 0.00, 0.00, 10:46:33.812
74, 8106.40, -187500.02, -187500.02, -111839.79, -182844.77, -75974.41, -187500.02, -130376.89, 0.00, 0.00, 0.00, 10:46:33.816
75, 8184.00, -187500.02, -187500.02, -111855.48, -182861.22, -75988.98, -187500.02, -130401.28, 0.00, 0.00, 0.00, 10:46:33.821
76, 8225.06, -187500.02, -187500.02, -111870.39, -182875.78, -76003.91, -187500.02, -130425.89, 0.00, 0.00, 0.00, 10:46:33.825
77, 8053.47, -187500.02, -187500.02, -111811.00, -182815.61, -75944.56, -187500.02, -130367.91, 0.00, 0.00, 0.00, 10:46:33.828
78, 8017.12, -187500.02, -187500.02, -111831.43, -182838.22, -75965.58, -187500.02, -130386.51, 0.00, 0.00, 0.00, 10:46:33.833
79, 8096.16, -187500.02, -187500.02, -111827.92, -182834.61, -75961.20, -187500.02, -130378.30, 0.00, 0.00, 0.00, 10:46:33.838
80, 8206.51, -187500.02, -187500.02, -111832.23, -182837.58, -75964.05, -187500.02, -130380.34, 0.00, 0.00, 0.00, 10:46:33.840
81, 8133.17, -187500.02, -187500.02, -111838.49, -182842.58, -75970.29, -187500.02, -130390.88, 0.00, 0.00, 0.00, 10:46:33.844
82, 7965.58, -187500.02, -187500.02, -111819.83, -182822.38, -75951.25, -187500.02, -130384.16, 0.01, -0.54, 0.86, 10:46:33.847
83, 8040.62, -187500.02, -187500.02, -111821.57, -182823.72, -75953.69, -187500.02, -130395.65, 0.00, 0.00, 0.00, 10:46:33.852
84, 8203.00, -187500.02, -187500.02, -111839.88, -182842.50, -75972.95, -187500.02, -130416.77, 0.00, 0.00, 0.00, 10:46:33.857
85, 8201.35, -187500.02, -187500.02, -111862.56, -182864.58, -75995.44, -187500.02, -130439.03, 0.00, 0.00, 0.00, 10:46:33.861
86, 8083.49, -187500.02, -187500.02, -111879.69, -182881.67, -76010.70, -187500.02, -130452.71, 0.00, 0.00, 0.00, 10:46:33.864
87, 8075.17, -187500.02, -187500.02, -111880.55, -182883.53, -76011.09, -187500.02, -130455.73, 0.00, 0.00, 0.00, 10:46:33.868
88, 8135.72, -187500.02, -187500.02, -111848.66, -182852.38, -75977.73, -187500.02, -130432.62, 0.00, 0.00, 0.00, 10:46:33.872
89, 8109.59, -187500.02, -187500.02, -111843.01, -182846.67, -75969.58, -187500.02, -130435.12, 0.00, 0.00, 0.00, 10:46:33.877
90, 7987.17, -187500.02, -187500.02, -111842.63, -182845.89, -75968.26, -187500.02, -130435.16, 0.00, 0.00, 0.00, 10:46:33.880
91, 8005.57, -187500.02, -187500.02, -111854.90, -182856.98, -75979.32, -187500.02, -130443.55, 0.00, -0.55, 0.85, 10:46:33.885
92, 8110.91, -187500.02, -187500.02, -111838.31, -182840.70, -75962.00, -187500.02, -130424.80, 0.00, 0.00, 0.00, 10:46:33.889
93, 8150.50, -187500.02, -187500.02, -111837.66, -182839.72, -75960.21, -187500.02, -130423.74, 0.00, 0.00, 0.00, 10:46:33.892
94, 8023.49, -187500.02, -187500.02, -111844.46, -182845.09, -75966.54, -187500.02, -130437.53, 0.00, 0.00, 0.00, 10:46:33.897
95, 7974.88, -187500.02, -187500.02, -111843.79, -182843.08, -75964.95, -187500.02, -130448.71, 0.00, 0.00, 0.00, 10:46:33.900
96, 8107.63, -187500.02, -187500.02, -111861.96, -182858.44, -75980.22, -187500.02, -130476.27, 0.00, 0.00, 0.00, 10:46:33.903
97, 8199.85, -187500.02, -187500.02, -111880.06, -182872.38, -75995.17, -187500.02, -130495.18, 0.00, 0.00, 0.00, 10:46:33.908
98, 8145.18, -187500.02, -187500.02, -111928.57, -182916.97, -76038.04, -187500.02, -130540.38, 0.00, 0.00, 0.00, 10:46:33.913
99, 8099.74, -187500.02, -187500.02, -111964.89, -182948.73, -76068.59, -187500.02, -130572.61, 0.00, 0.00, 0.00, 10:46:33.917
100, 8153.71, -187500.02, -187500.02, -111967.28, -182948.08, -76068.03, -187500.02, -130573.43, 0.00, 0.00, 0.00, 10:46:33.919
101, 8183.85, -187500.02, -187500.02, -111953.05, -182935.59, -76054.06, -187500.02, -130568.09, 0.01, -0.54, 0.86, 10:46:33.924
102, 8048.06, -187500.02, -187500.02, -111929.17, -182911.11, -76029.39, -187500.02, -130551.38, 0.00, 0.00, 0.00, 10:46:33.928
103, 8019.85, -187500.02, -187500.02, -111965.52, -182945.80, -76064.26, -187500.02, -130584.81, 0.00, 0.00, 0.00, 10:46:33.933
104, 8112.14, -187500.02, -187500.02, -111980.94, -182959.33, -76078.27, -187500.02, -130596.95, 0.00, 0.00, 0.00, 10:46:33.936
105, 8206.80, -187500.02, -187500.02, -111990.98, -182968.05, -76085.88, -187500.02, -130605.95, 0.00, 0.00, 0.00, 10:46:33.941
106, 8075.42, -187500.02, -187500.02, -111959.13, -182933.89, -76053.51, -187500.02, -130580.88, 0.00, 0.00, 0.00, 10:46:33.945
107, 7901.19, -187500.02, -187500.02, -111921.06, -182892.19, -76014.75, -187500.02, -130551.70, 0.00, 0.00, 0.00, 10:46:33.949
108, 8010.42, -187500.02, -187500.02, -111921.41, -182890.53, -76014.19, -187500.02, -130553.79, 0.00, 0.00, 0.00, 10:46:33.952
109, 8217.13, -187500.02, -187500.02, -111963.44, -182932.73, -76055.32, -187500.02, -130593.88, 0.00, 0.00, 0.00, 10:46:33.956
110, 8264.96, -187500.02, -187500.02, -112032.55, -183000.56, -76120.36, -187500.02, -130661.52, 0.00, 0.00, 0.00, 10:46:33.959
111, 8098.10, -187500.02, -187500.02, -112058.01, -183024.92, -76142.02, -187500.02, -130694.00, 0.01, -0.54, 0.85, 10:46:33.963
112, 8035.38, -187500.02, -187500.02, -112026.31, -182993.28, -76109.34, -187500.02, -130672.23, 0.00, 0.00, 0.00, 10:46:33.969
113, 8136.73, -187500.02, -187500.02, -112003.65, -182971.23, -76085.63, -187500.02, -130654.48, 0.00, 0.00, 0.00, 10:46:33.973
114, 8147.01, -187500.02, -187500.02, -112000.88, -182966.17, -76080.04, -187500.02, -130647.10, 0.00, 0.00, 0.00, 10:46:33.976
115, 8049.69, -187500.02, -187500.02, -112023.84, -182988.77, -76100.53, -187500.02, -130664.98, 0.00, 0.00, 0.00, 10:46:33.979
116, 8032.14, -187500.02, -187500.02, -112028.30, -182993.14, -76103.48, -187500.02, -130664.77, 0.00, 0.00, 0.00, 10:46:33.984
117, 8185.07, -187500.02, -187500.02, -112047.68, -183011.73, -76121.16, -187500.02, -130682.71, 0.00, 0.00, 0.00, 10:46:33.988
118, 8175.80, -187500.02, -187500.02, -112048.77, -183011.34, -76121.01, -187500.02, -130691.30, 0.00, 0.00, 0.00, 10:46:33.992
119, 8017.10, -187500.02, -187500.02, -112039.99, -183001.75, -76110.91, -187500.02, -130693.39, 0.00, 0.00, 0.00, 10:46:33.997
120, 7938.78, -187500.02, -187500.02, -112008.74, -182969.14, -76078.90, -187500.02, -130665.39, 0.00, 0.00, 0.00, 10:46:34.001
121, 8104.90, -187500.02, -187500.02, -112010.98, -182970.53, -76077.20, -187500.02, -130664.67, 0.01, -0.54, 0.85, 10:46:34.004
122, 8221.17, -187500.02, -187500.02, -112024.19, -182983.42, -76089.60, -187500.02, -130677.77, 0.00, 0.00, 0.00, 10:46:34.008
123, 8187.31, -187500.02, -187500.02, -112069.95, -183027.91, -76136.39, -187500.02, -130725.27, 0.00, 0.00, 0.00, 10:46:34.012
124, 8098.86, -187500.02, -187500.02, -112118.72, -183075.17, -76183.59, -187500.02, -130780.55, 0.00, 0.00, 0.00, 10:46:34.016
125, 8102.89, -187500.02, -187500.02, -112094.69, -183050.16, -76157.11, -187500.02, -130763.20, 0.00, 0.00, 0.00, 10:46:34.021
126, 8162.77, -187500.02, -187500.02, -112067.42, -183022.16, -76128.50, -187500.02, -130737.30, 0.00, 0.00, 0.00, 10:46:34.025
127, 8140.13, -187500.02, -187500.02, -112095.94, -183050.16, -76152.93, -187500.02, -130763.00, 0.00, 0.00, 0.00, 10:46:34.029
128, 8043.57, -187500.02, -187500.02, -112114.87, -183067.38, -76168.66, -187500.02, -130777.37, 0.00, 0.00, 0.00, 10:46:34.032
129, 8122.09, -187500.02, -187500.02, -112126.29, -183079.42, -76179.64, -187500.02, -130789.57, 0.00, 0.00, 0.00, 10:46:34.035
130, 8163.35, -187500.02, -187500.02, -112118.16, -183068.73, -76167.34, -187500.02, -130788.30, 0.00, 0.00, 0.00, 10:46:34.041
131, 8042.40, -187500.02, -187500.02, -112081.48, -183030.16, -76128.45, -187500.02, -130759.38, 0.01, -0.53, 0.85, 10:46:34.045
132, 7967.93, -187500.02, -187500.02, -112101.82, -183051.66, -76146.84, -187500.02, -130781.20, 0.00, 0.00, 0.00, 10:46:34.047
133, 8016.85, -187500.02, -187500.02, -112102.33, -183052.38, -76146.00, -187500.02, -130777.28, 0.00, 0.00, 0.00, 10:46:34.053
134, 8157.72, -187500.02, -187500.02, -112087.71, -183037.36, -76130.17, -187500.02, -130758.04, 0.00, 0.00, 0.00, 10:46:34.056
135, 8202.04, -187500.02, -187500.02, -112123.55, -183071.48, -76164.02, -187500.02, -130791.27, 0.00, 0.00, 0.00, 10:46:34.060
136, 8157.11, -187500.02, -187500.02, -112206.78, -183151.44, -76242.45, -187500.02, -130875.98, 0.00, 0.00, 0.00, 10:46:34.064
137, 8082.57, -187500.02, -187500.02, -112210.38, -183148.88, -76242.11, -187500.02, -130885.93, 0.00, 0.00, 0.00, 10:46:34.067
138, 8130.33, -187500.02, -187500.02, -112167.17, -183104.41, -76198.46, -187500.02, -130850.62, 0.00, 0.00, 0.00, 10:46:34.072
139, 8135.59, -187500.02, -187500.02, -112153.56, -183089.92, -76182.48, -187500.02, -130837.85, 0.00, 0.00, 0.00, 10:46:34.075
140, 8019.83, -187500.02, -187500.02, -112165.77, -183100.88, -76192.49, -187500.02, -130846.80, 0.01, -0.53, 0.85, 10:46:34.081
141, 7946.89, -187500.02, -187500.02, -112134.70, -183070.61, -76161.09, -187500.02, -130810.77, 0.00, 0.00, 0.00, 10:46:34.083
142, 8103.04, -187500.02, -187500.02, -112134.92, -183071.27, -76160.82, -187500.02, -130807.91, 0.00, 0.00, 0.00, 10:46:34.088
143, 8156.84, -187500.02, -187500.02, -112161.32, -183098.33, -76185.67, -187500.02, -130840.40, 0.00, 0.00, 0.00, 10:46:34.092
144, 7997.68, -187500.02, -187500.02, -112153.12, -183089.55, -76174.83, -187500.02, -130844.13, 0.00, 0.00, 0.00, 10:46:34.095
145, 7912.14, -187500.02, -187500.02, -112126.25, -183059.91, -76145.73, -187500.02, -130823.02, 0.00, 0.00, 0.00, 10:46:34.100
146, 8128.64, -187500.02, -187500.02, -112150.23, -183081.09, -76169.58, -187500.02, -130844.58, 0.00, 0.00, 0.00, 10:46:34.104
147, 8248.33, -187500.02, -187500.02, -112216.02, -183143.61, -76232.66, -187500.02, -130906.95, 0.00, 0.00, 0.00, 10:46:34.108
148, 8083.49, -187500.02, -187500.02, -112202.00, -183124.84, -76215.53, -187500.02, -130888.97, 0.00, 0.00, 0.00, 10:46:34.112
149, 7987.48, -187500.02, -187500.02, -112221.04, -183139.97, -76231.85, -187500.02, -130914.03, 0.00, 0.00, 0.00, 10:46:34.116
150, 8036.66, -187500.02, -187500.02, -112205.69, -183119.16, -76211.84, -187500.02, -130907.10, 0.00, -0.53, 0.85, 10:46:34.121
151, 8100.03, -187500.02, -187500.02, -112178.62, -183087.25, -76181.13, -187500.02, -130881.66, 0.00, 0.00, 0.00, 10:46:34.124
152, 8062.97, -187500.02, -187500.02, -112194.29, -183099.67, -76193.92, -187500.02, -130893.02, 0.00, 0.00, 0.00, 10:46:34.127
153, 7967.64, -187500.02, -187500.02, -112208.52, -183112.23, -76207.31, -187500.02, -130902.30, 0.00, 0.00, 0.00, 10:46:34.132
154, 8104.76, -187500.02, -187500.02, -112247.98, -183151.58, -76247.74, -187500.02, -130937.70, 0.00, 0.00, 0.00, 10:46:34.137
155, 8224.39, -187500.02, -187500.02, -112278.66, -183181.14, -76276.29, -187500.02, -130971.05, 0.00, 0.00, 0.00, 10:46:34.139
156, 8048.66, -187500.02, -187500.02, -112223.16, -183120.02, -76215.91, -187500.02, -130923.86, 0.00, 0.00, 0.00, 10:46:34.144
157, 7933.04, -187500.02, -187500.02, -112209.13, -183104.08, -76200.67, -187500.02, -130918.79, 0.00, 0.00, 0.00, 10:46:34.148
158, 8068.67, -187500.02, -187500.02, -112238.74, -183134.45, -76230.98, -187500.02, -130950.87, 0.00, 0.00, 0.00, 10:46:34.151
159, 8238.41, -187500.02, -187500.02, -112270.38, -183164.88, -76261.13, -187500.02, -130980.73, 0.00, 0.00, 0.00, 10:46:34.156
160, 8188.85, -187500.02, -187500.02, -112265.56, -183157.88, -76254.67, -187500.02, -130973.98, 0.00, -0.53, 0.85, 10:46:34.160
161, 8090.41, -187500.02, -187500.02, -112308.84, -183200.30, -76294.70, -187500.02, -131019.26, 0.00, 0.00, 0.00, 10:46:34.164
162, 8026.02, -187500.02, -187500.02, -112304.03, -183194.20, -76286.81, -187500.02, -131021.36, 0.00, 0.00, 0.00, 10:46:34.167
163, 8108.85, -187500.02, -187500.02, -112278.44, -183168.20, -76259.27, -187500.02, -131003.16, 0.00, 0.00, 0.00, 10:46:34.171
164, 8128.41, -187500.02, -187500.02, -112265.14, -183157.05, -76247.72, -187500.02, -130992.23, 0.00, 0.00, 0.00, 10:46:34.176
165, 8007.56, -187500.02, -187500.02, -112268.88, -183162.84, -76253.71, -187500.02, -130996.28, 0.00, 0.00, 0.00, 10:46:34.180
166, 8009.86, -187500.02, -187500.02, -112291.41, -183185.44, -76275.98, -187500.02, -131014.68, 0.00, 0.00, 0.00, 10:46:34.184
167, 8139.68, -187500.02, -187500.02, -112300.62, -183194.48, -76285.02, -187500.02, -131024.55, 0.00, 0.00, 0.00, 10:46:34.188
168, 8150.14, -187500.02, -187500.02, -112290.55, -183183.84, -76273.27, -187500.02, -131024.29, 0.00, 0.00, 0.00, 10:46:34.193
169, 8007.11, -187500.02, -187500.02, -112277.21, -183169.50, -76257.98, -187500.02, -131019.35, 0.00, 0.00, 0.00, 10:46:34.198
170, 7994.70, -187500.02, -187500.02, -112300.34, -183190.63, -76278.92, -187500.02, -131041.77, 0.00, -0.53, 0.85, 10:46:34.201
171, 8153.38, -187500.02, -187500.02, -112305.98, -183197.33, -76285.95, -187500.02, -131045.93, 0.00, 0.00, 0.00, 10:46:34.204
172, 8300.41, -187500.02, -187500.02, -112347.80, -183239.22, -76326.11, -187500.02, -131086.92, 0.00, 0.00, 0.00, 10:46:34.208
173, 8187.29, -187500.02, -187500.02, -112396.10, -183282.95, -76367.93, -187500.02, -131139.52, 0.00, 0.00, 0.00, 10:46:34.213
174, 8035.72, -187500.02, -187500.02, -112401.76, -183286.47, -76368.55, -187500.02, -131153.44, 0.00, 0.00, 0.00, 10:46:34.216
175, 8071.57, -187500.02, -187500.02, -112373.21, -183255.84, -76335.36, -187500.02, -131126.77, 0.00, 0.00, 0.00, 10:46:34.219
176, 8165.11, -187500.02, -187500.02, -112341.52, -183222.45, -76300.67, -187500.02, -131091.48, 0.00, 0.00, 0.00, 10:46:34.223
177, 8110.31, -187500.02, -187500.02, -112350.64, -183230.45, -76306.82, -187500.02, -131098.44, 0.00, 0.00, 0.00, 10:46:34.227
178, 8018.17, -187500.02, -187500.02, -112377.05, -183255.55, -76331.12, -187500.02, -131122.53, 0.00, 0.00, 0.00, 10:46:34.232
179, 8068.85, -187500.02, -187500.02, -112377.34, -183253.81, -76329.95, -187500.02, -131123.58, 0.00, 0.00, 0.00, 10:46:34.236
180, 8160.91, -187500.02, -187500.02, -112378.20, -183255.06, -76330.47, -187500.02, -131134.59, 0.01, -0.54, 0.85, 10:46:34.240
181, 8036.70, -187500.02, -187500.02, -112345.50, -183221.59, -76296.09, -187500.02, -131110.70, 0.00, 0.00, 0.00, 10:46:34.244
182, 7920.85, -187500.02, -187500.02, -112327.39, -183203.03, -76276.42, -187500.02, -131093.11, 0.00, 0.00, 0.00, 10:46:34.248
183, 8030.33, -187500.02, -187500.02, -112350.57, -183226.91, -76300.27, -187500.02, -131113.58, 0.00, 0.00, 0.00, 10:46:34.251
184, 8217.37, -187500.02, -187500.02, -112371.89, -183247.33, -76322.24, -187500.02, -131134.02, 0.00, 0.00, 0.00, 10:46:34.255
185, 8238.81, -187500.02, -187500.02, -112421.02, -183294.94, -76369.47, -187500.02, -131185.58, 0.00, 0.00, 0.00, 10:46:34.260
186, 8052.71, -187500.02, -187500.02, -112439.28, -183309.47, -76383.42, -187500.02, -131211.31, 0.00, 0.00, 0.00, 10:46:34.264
187, 7948.03, -187500.02, -187500.02, -112401.09, -183267.56, -76342.23, -187500.02, -131179.72, 0.00, 0.00, 0.00, 10:46:34.269
188, 8083.06, -187500.02, -187500.02, -112376.59, -183240.94, -76315.98, -187500.02, -131154.59, 0.00, 0.00, 0.00, 10:46:34.272
189, 8158.57, -187500.02, -187500.02, -112401.76, -183264.31, -76338.89, -187500.02, -131175.41, 0.01, -0.54, 0.85, 10:46:34.276
190, 8100.72, -187500.02, -187500.02, -112457.48, -183318.47, -76392.05, -187500.02, -131227.94, 0.00, 0.00, 0.00, 10:46:34.279
191, 8043.68, -187500.02, -187500.02, -112486.18, -183348.09, -76417.46, -187500.02, -131255.34, 0.00, 0.00, 0.00, 10:46:34.283
192, 8083.87, -187500.02, -187500.02, -112445.19, -183307.86, -76373.77, -187500.02, -131221.08, 0.00, 0.00, 0.00, 10:46:34.289
193, 8126.69, -187500.02, -187500.02, -112435.08, -183297.58, -76361.07, -187500.02, -131220.09, 0.00, 0.00, 0.00, 10:46:34.292
194, 7982.25, -187500.02, -187500.02, -112416.13, -183278.98, -76340.93, -187500.02, -131203.44, 0.00, 0.00, 0.00, 10:46:34.296
195, 7945.62, -187500.02, -187500.02, -112436.29, -183298.41, -76359.97, -187500.02, -131219.31, 0.00, 0.00, 0.00, 10:46:34.299
196, 8120.79, -187500.02, -187500.02, -112457.68, -183316.95, -76377.83, -187500.02, -131234.94, 0.00, 0.00, 0.00, 10:46:34.303
197, 8260.91, -187500.02, -187500.02, -112479.36, -183337.31, -76397.59, -187500.02, -131254.80, 0.00, 0.00, 0.00, 10:46:34.307
198, 8154.54, -187500.02, -187500.02, -112514.81, -183372.41, -76430.71, -187500.02, -131296.69, 0.00, 0.00, 0.00, 10:46:34.312
199, 7998.55, -187500.02, -187500.02, -112526.92, -183384.02, -76439.52, -187500.02, -131318.30, 0.00, -0.54, 0.84, 10:46:34.316
200, 8027.03, -187500.02, -187500.02, -112493.58, -183350.42, -76404.45, -187500.02, -131291.38, 0.00, 0.00, 0.00, 10:46:34.320
201, 8138.67, -187500.02, -187500.02, -112487.61, -183343.50, -76397.08, -187500.02, -131286.52, 0.00, 0.00, 0.00, 10:46:34.324
202, 8109.79, -187500.02, -187500.02, -112505.47, -183360.83, -76415.07, -187500.02, -131304.14, 0.00, 0.00, 0.00, 10:46:34.328
203, 8025.77, -187500.02, -187500.02, -112535.93, -183392.13, -76444.91, -187500.02, -131332.00, 0.00, 0.00, 0.00, 10:46:34.331
204, 8017.73, -187500.02, -187500.02, -112517.88, -183372.34, -76424.48, -187500.02, -131314.91, 0.00, 0.00, 0.00, 10:46:34.335
205, 8047.07, -187500.02, -187500.02, -112454.57, -183306.14, -76358.79, -187500.02, -131260.03, 0.00, 0.00, 0.00, 10:46:34.340
206, 8041.75, -187500.02, -187500.02, -112460.07, -183310.94, -76363.05, -187500.02, -131269.73, 0.00, 0.00, 0.00, 10:46:34.343
207, 7919.09, -187500.02, -187500.02, -112459.02, -183308.81, -76359.62, -187500.02, -131265.02, 0.00, 0.00, 0.00, 10:46:34.348
208, 8040.30, -187500.02, -187500.02, -112491.90, -183339.86, -76389.37, -187500.02, -131292.20, 0.00, 0.00, 0.00, 10:46:34.352
209, 8232.88, -187500.02, -187500.02, -112523.17, -183371.78, -76421.08, -187500.02, -131325.02, 0.01, -0.56, 0.84, 10:46:34.355
210, 8214.80, -187500.02, -187500.02, -112555.76, -183405.73, -76453.42, -187500.02, -131369.84, 0.00, 0.00, 0.00, 10:46:34.359
211, 8031.99, -187500.02, -187500.02, -112574.67, -183423.48, -76468.98, -187500.02, -131398.33, 0.00, 0.00, 0.00, 10:46:34.365
212, 7979.89, -187500.02, -187500.02, -112570.47, -183418.20, -76462.21, -187500.02, -131396.06, 0.00, 0.00, 0.00, 10:46:34.369
213, 8106.22, -187500.02, -187500.02, -112554.69, -183400.45, -76444.88, -187500.02, -131374.55, 0.00, 0.00, 0.00, 10:46:34.372
214, 8135.05, -187500.02, -187500.02, -112543.91, -183385.48, -76431.90, -187500.02, -131358.61, 0.00, 0.00, 0.00, 10:46:34.377
215, 8027.96, -187500.02, -187500.02, -112567.41, -183406.50, -76453.23, -187500.02, -131378.61, 0.00, 0.00, 0.00, 10:46:34.379
216, 7956.42, -187500.02, -187500.02, -112584.86, -183422.41, -76468.13, -187500.02, -131401.63, 0.00, 0.00, 0.00, 10:46:34.384
217, 8045.42, -187500.02, -187500.02, -112585.95, -183423.42, -76467.64, -187500.02, -131413.30, 0.00, 0.00, 0.00, 10:46:34.388
218, 8103.74, -187500.02, -187500.02, -112571.30, -183406.36, -76450.85, -187500.02, -131402.69, 0.00, 0.00, 0.00, 10:46:34.391
219, 7997.27, -187500.02, -187500.02, -112566.09, -183399.75, -76443.27, -187500.02, -131397.23, -0.02, -0.53, 0.87, 10:46:34.395
220, 7896.51, -187500.02, -187500.02, -112562.09, -183395.14, -76436.82, -187500.02, -131392.06, 0.00, 0.00, 0.00, 10:46:34.400
221, 8095.76, -187500.02, -187500.02, -112617.79, -183450.17, -76489.63, -187500.02, -131446.05, 0.00, 0.00, 0.00, 10:46:34.405
222, 8195.56, -187500.02, -187500.02, -112638.70, -183468.23, -76505.50, -187500.02, -131472.53, 0.00, 0.00, 0.00, 10:46:34.407
223, 8037.78, -187500.02, -187500.02, -112613.05, -183440.25, -76475.24, -187500.02, -131454.09, 0.00, 0.00, 0.00, 10:46:34.411
224, 7916.23, -187500.02, -187500.02, -112596.57, -183420.63, -76456.64, -187500.02, -131437.48, 0.00, 0.00, 0.00, 10:46:34.415
225, 7999.78, -187500.02, -187500.02, -112609.23, -183432.33, -76467.30, -187500.02, -131445.38, 0.00, 0.00, 0.00, 10:46:34.419
226, 8093.66, -187500.02, -187500.02, -112638.17, -183461.30, -76493.84, -187500.02, -131472.20, 0.00, 0.00, 0.00, 10:46:34.424
227, 8063.03, -187500.02, -187500.02, -112652.84, -183475.09, -76505.03, -187500.02, -131488.17, 0.00, 0.00, 0.00, 10:46:34.427
228, 7908.00, -187500.02, -187500.02, -112673.38, -183494.19, -76522.45, -187500.02, -131516.78, 0.00, 0.00, 0.00, 10:46:34.432
229, 7882.34, -187500.02, -187500.02, -112629.88, -183448.52, -76475.95, -187500.02, -131481.09, 0.01, -0.50, 0.89, 10:46:34.436
230, 8001.88, -187500.02, -187500.02, -112568.43, -183385.38, -76412.74, -187500.02, -131420.91, 0.00, 0.00, 0.00, 10:46:34.440
231, 7991.87, -187500.02, -187500.02, -112602.90, -183418.72, -76444.95, -187500.02, -131455.56, 0.00, 0.00, 0.00, 10:46:34.443
232, 7931.83, -187500.02, -187500.02, -112652.48, -183467.38, -76493.41, -187500.02, -131505.34, 0.00, 0.00, 0.00, 10:46:34.448
233, 8018.91, -187500.02, -187500.02, -112689.96, -183503.44, -76529.55, -187500.02, -131541.38, 0.00, 0.00, 0.00, 10:46:34.451
234, 8100.25, -187500.02, -187500.02, -112710.01, -183521.81, -76545.13, -187500.02, -131564.28, 0.00, 0.00, 0.00, 10:46:34.456
235, 8002.35, -187500.02, -187500.02, -112718.14, -183529.86, -76549.96, -187500.02, -131584.88, 0.00, 0.00, 0.00, 10:46:34.459
236, 7797.09, -187500.02, -187500.02, -112697.31, -183507.84, -76526.52, -187500.02, -131575.47, 0.00, 0.00, 0.00, 10:46:34.463
237, 7849.80, -187500.02, -187500.02, -112694.61, -183504.27, -76522.73, -187500.02, -131571.81, 0.00, 0.00, 0.00, 10:46:34.466
238, 8067.12, -187500.02, -187500.02, -112682.47, -183489.98, -76508.63, -187500.02, -131556.27, 0.01, -0.54, 0.93, 10:46:34.471
239, 8058.92, -187500.02, -187500.02, -112689.83, -183496.84, -76514.66, -187500.02, -131565.05, 0.00, 0.00, 0.00, 10:46:34.476
240, 7835.96, -187500.02, -187500.02, -112711.75, -183518.14, -76533.31, -187500.02, -131589.63, 0.00, 0.00, 0.00, 10:46:34.479
241, 7720.43, -187500.02, -187500.02, -112676.41, -183483.05, -76495.78, -187500.02, -131565.11, 0.00, 0.00, 0.00, 10:46:34.483
242, 7892.04, -187500.02, -187500.02, -112615.08, -183420.22, -76433.45, -187500.02, -131511.05, 0.00, 0.00, 0.00, 10:46:34.488
243, 8009.77, -187500.02, -187500.02, -112639.65, -183444.36, -76457.91, -187500.02, -131536.56, 0.00, 0.00, 0.00, 10:46:34.493
244, 7846.85, -187500.02, -187500.02, -112700.82, -183504.28, -76519.09, -187500.02, -131596.89, 0.00, 0.00, 0.00, 10:46:34.497
245, 7829.48, -187500.02, -187500.02, -112770.20, -183570.72, -76584.72, -187500.02, -131665.05, 0.00, 0.00, 0.00, 10:46:34.499
246, 8020.32, -187500.02, -187500.02, -112790.41, -183589.41, -76599.96, -187500.02, -131692.88, 0.00, 0.00, 0.00, 10:46:34.504
247, 7975.73, -187500.02, -187500.02, -112755.05, -183551.52, -76561.79, -187500.02, -131668.22, 0.00, 0.00, 0.00, 10:46:34.507
248, 7760.19, -187500.02, -187500.02, -112782.41, -183576.81, -76586.23, -187500.02, -131698.48, 0.05, -0.58, 0.77, 10:46:34.514
249, 7657.17, -187500.02, -187500.02, -112814.44, -183607.14, -76615.90, -187500.02, -131728.86, 0.00, 0.00, 0.00, 10:46:34.516
250, 7860.13, -187500.02, -187500.02, -112790.05, -183582.78, -76591.09, -187500.02, -131700.88, 0.00, 0.00, 0.00, 10:46:34.521
251, 7997.59, -187500.02, -187500.02, -112802.37, -183594.70, -76601.73, -187500.02, -131713.86, 0.00, 0.00, 0.00, 10:46:34.524
252, 7770.05, -187500.02, -187500.02, -112852.48, -183642.95, -76647.73, -187500.02, -131773.08, 0.00, 0.00, 0.00, 10:46:34.528
253, 7494.27, -187500.02, -187500.02, -112818.34, -183608.42, -76610.47, -187500.02, -131751.95, 0.00, 0.00, 0.00, 10:46:34.532
254, 7636.45, -187500.02, -187500.02, -112784.13, -183576.33, -76575.78, -187500.02, -131728.25, 0.00, 0.00, 0.00, 10:46:34.537
255, 7788.22, -187500.02, -187500.02, -112747.88, -183540.03, -76538.38, -187500.02, -131693.05, 0.00, 0.00, 0.00, 10:46:34.540
0, 7730.55, -187500.02, -187500.02, -112759.41, -183549.44, -76547.48, -187500.02, -131703.31, 0.00, 0.00, 0.00, 10:46:34.543
1, 7602.52, -187500.02, -187500.02, -112805.31, -183594.11, -76590.53, -187500.02, -131748.98, 0.00, 0.00, 0.00, 10:46:34.547
2, 7789.96, -187500.02, -187500.02, -112849.06, -183636.47, -76629.29, -187500.02, -131794.28, 0.18, -0.64, 0.77, 10:46:34.551
3, 7916.36, -187500.02, -187500.02, -112865.06, -183648.45, -76639.39, -187500.02, -131818.22, 0.00, 0.00, 0.00, 10:46:34.555
4, 7714.28, -187500.02, -187500.02, -112839.80, -183619.22, -76611.20, -187500.02, -131805.30, 0.00, 0.00, 0.00, 10:46:34.559
5, 7516.11, -187500.02, -187500.02, -112856.77, -183635.27, -76627.45, -187500.02, -131829.89, 0.00, 0.00, 0.00, 10:46:34.564
6, 7616.38, -187500.02, -187500.02, -112885.27, -183664.64, -76654.43, -187500.02, -131857.56, 0.00, 0.00, 0.00, 10:46:34.567
7, 7843.36, -187500.02, -187500.02, -112889.83, -183669.02, -76657.23, -187500.02, -131859.03, 0.00, 0.00, 0.00, 10:46:34.571
8, 7778.54, -187500.02, -187500.02, -112893.18, -183673.42, -76660.36, -187500.02, -131864.56, 0.00, 0.00, 0.00, 10:46:34.574
9, 7542.73, -187500.02, -187500.02, -112901.30, -183681.28, -76668.16, -187500.02, -131884.91, 0.00, 0.00, 0.00, 10:46:34.579
10, 7486.20, -187500.02, -187500.02, -112912.78, -183689.41, -76676.25, -187500.02, -131906.11, 0.00, 0.00, 0.00, 10:46:34.584
11, 7614.21, -187500.02, -187500.02, -112871.61, -183646.03, -76632.33, -187500.02, -131867.38, 0.00, 0.00, 0.00, 10:46:34.588
12, 7604.22, -187500.02, -187500.02, -112840.45, -183614.75, -76599.56, -187500.02, -131834.81, 0.16, -0.57, 0.80, 10:46:34.592
13, 7562.38, -187500.02, -187500.02, -112889.63, -183664.09, -76646.25, -187500.02, -131883.64, 0.00, 0.00, 0.00, 10:46:34.597
14, 7555.81, -187500.02, -187500.02, -112926.98, -183700.08, -76682.46, -187500.02, -131920.86, 0.00, 0.00, 0.00, 10:46:34.601
15, 7650.87, -187500.02, -187500.02, -112933.10, -183706.45, -76688.30, -187500.02, -131932.33, 0.00, 0.00, 0.00, 10:46:34.603
16, 7793.23, -187500.02, -187500.02, -112956.03, -183728.11, -76708.59, -187500.02, -131967.00, 0.00, 0.00, 0.00, 10:46:34.608
17, 7617.30, -187500.02, -187500.02, -112960.77, -183730.97, -76709.13, -187500.02, -131984.77, 0.00, 0.00, 0.00, 10:46:34.613
18, 7414.97, -187500.02, -187500.02, -112952.28, -183722.33, -76700.14, -187500.02, -131981.30, 0.00, 0.00, 0.00, 10:46:34.618
19, 7505.69, -187500.02, -187500.02, -112980.91, -183752.05, -76728.44, -187500.02, -132009.27, 0.00, 0.00, 0.00, 10:46:34.620
20, 7572.90, -187500.02, -187500.02, -112961.66, -183733.84, -76709.59, -187500.02, -131990.98, 0.00, 0.00, 0.00, 10:46:34.625
21, 7566.36, -187500.02, -187500.02, -113001.59, -183775.92, -76749.34, -187500.02, -132036.42, 0.00, 0.00, 0.00, 10:46:34.629
22, 7376.70, -187500.02, -187500.02, -113049.42, -183822.39, -76794.04, -187500.02, -132094.09, 0.18, -0.60, 0.91, 10:46:34.631
23, 7318.81, -187500.02, -187500.02, -113076.96, -183845.38, -76817.00, -187500.02, -132129.09, 0.00, 0.00, 0.00, 10:46:34.636
24, 7375.58, -187500.02, -187500.02, -113030.47, -183798.13, -76767.89, -187500.02, -132086.78, 0.00, 0.00, 0.00, 10:46:34.639
25, 7413.07, -187500.02, -187500.02, -113020.34, -183790.44, -76758.37, -187500.02, -132078.84, 0.00, 0.00, 0.00, 10:46:34.643
26, 7315.08, -187500.02, -187500.02, -113019.27, -183790.14, -76756.98, -187500.02, -132078.11, 0.00, 0.00, 0.00, 10:46:34.647
27, 7338.26, -187500.02, -187500.02, -113011.98, -183782.63, -76749.20, -187500.02, -132068.30, 0.00, 0.00, 0.00, 10:46:34.651
28, 7508.91, -187500.02, -187500.02, -113031.25, -183802.19, -76768.54, -187500.02, -132087.78, 0.00, 0.00, 0.00, 10:46:34.654
29, 7611.01, -187500.02, -187500.02, -113067.63, -183840.08, -76805.15, -187500.02, -132136.63, 0.00, 0.00, 0.00, 10:46:34.659
30, 7532.60, -187500.02, -187500.02, -113094.01, -183868.19, -76831.44, -187500.02, -132178.20, 0.00, 0.00, 0.00, 10:46:34.662
31, 7388.66, -187500.02, -187500.02, -113088.45, -183862.06, -76822.98, -187500.02, -132179.19, 0.08, -0.77, 0.71, 10:46:34.667
32, 7548.97, -187500.02, -187500.02, -113055.84, -183828.92, -76789.37, -187500.02, -132145.88, 0.00, 0.00, 0.00, 10:46:34.671
33, 7693.45, -187500.02, -187500.02, -113050.47, -183824.03, -76783.36, -187500.02, -132141.63, 0.00, 0.00, 0.00, 10:46:34.676
34, 7592.35, -187500.02, -187500.02, -113077.83, -183852.91, -76809.63, -187500.02, -132169.73, 0.00, 0.00, 0.00, 10:46:34.678
35, 7388.99, -187500.02, -187500.02, -113086.84, -183864.61, -76819.39, -187500.02, -132184.56, 0.00, 0.00, 0.00, 10:46:34.682
36, 7446.91, -187500.02, -187500.02, -113045.20, -183824.47, -76777.73, -187500.02, -132153.09, 0.00, 0.00, 0.00, 10:46:34.686
37, 7602.14, -187500.02, -187500.02, -113039.63, -183820.20, -76770.30, -187500.02, -132151.58, 0.00, 0.00, 0.00, 10:46:34.691
38, 7537.37, -187500.02, -187500.02, -113039.90, -183822.23, -76771.69, -187500.02, -132152.20, 0.00, 0.00, 0.00, 10:46:34.694
39, 7403.21, -187500.02, -187500.02, -113067.50, -183851.58, -76800.68, -187500.02, -132181.84, 0.00, 0.00, 0.00, 10:46:34.698
40, 7464.95, -187500.02, -187500.02, -113104.72, -183889.78, -76837.41, -187500.02, -132225.14, 0.00, 0.00, 0.00, 10:46:34.703
41, 7657.71, -187500.02, -187500.02, -113129.41, -183913.33, -76859.47, -187500.02, -132260.98, 0.14, -0.48, 0.73, 10:46:34.707
42, 7638.80, -187500.02, -187500.02, -113118.58, -183899.33, -76845.74, -187500.02, -132257.95, 0.00, 0.00, 0.00, 10:46:34.711
43, 7473.10, -187500.02, -187500.02, -113157.65, -183936.56, -76882.53, -187500.02, -132297.20, 0.00, 0.00, 0.00, 10:46:34.714
44, 7406.16, -187500.02, -187500.02, -113178.41, -183954.77, -76900.50, -187500.02, -132314.48, 0.00, 0.00, 0.00, 10:46:34.719
45, 7582.14, -187500.02, -187500.02, -113207.94, -183981.78, -76927.46, -187500.02, -132347.64, 0.00, 0.00, 0.00, 10:46:34.723
46, 7628.25, -187500.02, -187500.02, -113166.07, -183941.48, -76886.91, -187500.02, -132318.88, 0.00, 0.00, 0.00, 10:46:34.727
47, 7444.05, -187500.02, -187500.02, -113144.66, -183921.77, -76866.87, -187500.02, -132305.47, 0.00, 0.00, 0.00, 10:46:34.730
48, 7344.02, -187500.02, -187500.02, -113167.80, -183946.22, -76890.83, -187500.02, -132328.98, 0.00, 0.00, 0.00, 10:46:34.734
49, 7529.07, -187500.02, -187500.02, -113183.62, -183961.42, -76907.70, -187500.02, -132345.44, 0.00, 0.00, 0.00, 10:46:34.739
50, 7714.95, -187500.02, -187500.02, -113176.29, -183956.02, -76901.33, -187500.02, -132339.11, 0.00, 0.00, 0.00, 10:46:34.743
51, 7591.30, -187500.02, -187500.02, -113185.36, -183967.28, -76911.88, -187500.02, -132355.16, 0.14, -0.44, 0.81, 10:46:34.746
52, 7347.55, -187500.02, -187500.02, -113185.19, -183969.63, -76913.40, -187500.02, -132368.69, 0.00, 0.00, 0.00, 10:46:34.751
53, 7434.68, -187500.02, -187500.02, -113137.87, -183922.73, -76864.61, -187500.02, -132330.64, 0.00, 0.00, 0.00, 10:46:34.755
54, 7661.08, -187500.02, -187500.02, -113112.38, -183898.39, -76837.88, -187500.02, -132307.28, 0.00, 0.00, 0.00, 10:46:34.758
55, 7705.94, -187500.02, -187500.02, -113153.96, -183939.22, -76877.86, -187500.02, -132346.84, 0.00, 0.00, 0.00, 10:46:34.762
56, 7616.92, -187500.02, -187500.02, -113246.88, -184029.42, -76966.59, -187500.02, -132436.08, 0.00, 0.00, 0.00, 10:46:34.767
57, 7580.17, -187500.02, -187500.02, -113225.48, -184004.34, -76941.05, -187500.02, -132420.53, 0.00, 0.00, 0.00, 10:46:34.770
58, 7710.59, -187500.02, -187500.02, -113155.75, -183931.58, -76869.34, -187500.02, -132357.81, 0.00, 0.00, 0.00, 10:46:34.775
59, 7656.21, -187500.02, -187500.02, -113145.33, -183920.50, -76856.80, -187500.02, -132346.66, 0.00, 0.00, 0.00, 10:46:34.779
60, 7495.59, -187500.02, -187500.02, -113194.51, -183972.11, -76905.35, -187500.02, -132393.56, 0.00, 0.00, 0.00, 10:46:34.783
61, 7552.30, -187500.02, -187500.02, -113223.98, -184000.94, -76933.61, -187500.02, -132417.52, 0.12, -0.51, 0.85, 10:46:34.786
62, 7783.44, -187500.02, -187500.02, -113233.58, -184009.55, -76942.73, -187500.02, -132429.52, 0.00, 0.00, 0.00, 10:46:34.790
63, 7738.42, -187500.02, -187500.02, -113212.56, -183988.00, -76920.66, -187500.02, -132417.47, 0.00, 0.00, 0.00, 10:46:34.795
64, 7475.07, -187500.02, -187500.02, -113200.79, -183975.91, -76907.37, -187500.02, -132408.31, 0.00, 0.00, 0.00, 10:46:34.799
65, 7447.80, -187500.02, -187500.02, -113223.00, -183998.59, -76929.02, -187500.02, -132427.67, 0.00, 0.00, 0.00, 10:46:34.828
66, 7675.10, -187500.02, -187500.02, -113195.06, -183968.44, -76901.06, -187500.02, -132396.48, 0.00, 0.00, 0.00, 10:46:34.828
67, 7873.80, -187500.02, -187500.02, -113224.63, -183997.25, -76929.60, -187500.02, -132429.83, 0.00, 0.00, 0.00, 10:46:34.828
68, 7641.55, -187500.02, -187500.02, -113267.17, -184038.02, -76969.03, -187500.02, -132483.08, 0.00, 0.00, 0.00, 10:46:34.828
69, 7443.82, -187500.02, -187500.02, -113287.82, -184056.75, -76986.96, -187500.02, -132512.48, 0.00, 0.00, 0.00, 10:46:34.828
70, 7626.50, -187500.02, -187500.02, -113271.24, -184039.23, -76970.30, -187500.02, -132497.69, 0.00, 0.00, 0.00, 10:46:34.828
71, 7797.83, -187500.02, -187500.02, -113264.96, -184033.47, -76963.00, -187500.02, -132487.13, 0.09, -0.54, 0.87, 10:46:34.828
72, 7672.08, -187500.02, -187500.02, -113333.33, -184103.28, -77028.71, -187500.02, -132550.67, 0.00, 0.00, 0.00, 10:46:34.831
73, 7497.42, -187500.02, -187500.02, -113382.75, -184150.66, -77073.33, -187500.02, -132596.64, 0.00, 0.00, 0.00, 10:46:34.834
74, 7625.25, -187500.02, -187500.02, -113362.77, -184131.50, -77053.14, -187500.02, -132585.89, 0.00, 0.00, 0.00, 10:46:34.839
75, 7714.73, -187500.02, -187500.02, -113321.62, -184093.23, -77014.41, -187500.02, -132556.44, 0.00, 0.00, 0.00, 10:46:34.843
76, 7553.35, -187500.02, -187500.02, -113304.77, -184076.02, -76996.52, -187500.02, -132538.64, 0.00, 0.00, 0.00, 10:46:34.846
77, 7384.70, -187500.02, -187500.02, -113342.48, -184112.94, -77031.91, -187500.02, -132569.78, 0.00, 0.00, 0.00, 10:46:34.850
78, 7497.18, -187500.02, -187500.02, -113340.41, -184110.55, -77028.11, -187500.02, -132563.52, 0.00, 0.00, 0.00, 10:46:34.854
79, 7722.95, -187500.02, -187500.02, -113314.35, -184084.20, -77000.88, -187500.02, -132537.08, 0.00, 0.00, 0.00, 10:46:34.859
80, 7665.24, -187500.02, -187500.02, -113333.58, -184102.73, -77018.99, -187500.02, -132561.63, 0.09, -0.52, 0.85, 10:46:34.863
81, 7435.67, -187500.02, -187500.02, -113382.66, -184150.03, -77066.66, -187500.02, -132619.95, 0.00, 0.00, 0.00, 10:46:34.866
82, 7442.33, -187500.02, -187500.02, -113378.64, -184143.75, -77060.05, -187500.02, -132622.47, 0.00, 0.00, 0.00, 10:46:34.870
83, 7625.36, -187500.02, -187500.02, -113330.94, -184094.92, -77010.12, -187500.02, -132574.55, 0.00, 0.00, 0.00, 10:46:34.874
84, 7668.21, -187500.02, -187500.02, -113352.82, -184116.09, -77030.59, -187500.02, -132591.23, 0.00, 0.00, 0.00, 10:46:34.878
85, 7464.61, -187500.02, -187500.02, -113421.87, -184183.75, -77097.47, -187500.02, -132655.08, 0.00, 0.00, 0.00, 10:46:34.883
86, 7346.57, -187500.02, -187500.02, -113423.97, -184183.00, -77095.48, -187500.02, -132658.52, 0.00, 0.00, 0.00, 10:46:34.887
87, 7497.36, -187500.02, -187500.02, -113362.16, -184119.42, -77032.65, -187500.02, -132601.98, 0.00, 0.00, 0.00, 10:46:34.891
88, 7590.21, -187500.02, -187500.02, -113358.95, -184117.22, -77029.38, -187500.02, -132598.72, 0.00, 0.00, 0.00, 10:46:34.894
89, 7372.01, -187500.02, -187500.02, -113383.94, -184143.31, -77054.26, -187500.02, -132620.36, 0.00, 0.00, 0.00, 10:46:34.898
90, 7281.86, -187500.02, -187500.02, -113371.48, -184131.14, -77040.76, -187500.02, -132603.98, 0.10, -0.59, 0.84, 10:46:34.902
91, 7524.13, -187500.02, -187500.02, -113341.76, -184100.72, -77010.36, -187500.02, -132573.98, 0.00, 0.00, 0.00, 10:46:34.906
92, 7645.26, -187500.02, -187500.02, -113366.68, -184127.27, -77036.09, -187500.02, -132609.34, 0.00, 0.00, 0.00, 10:46:34.911
93, 7426.95, -187500.02, -187500.02, -113409.08, -184171.81, -77077.53, -187500.02, -132663.45, 0.00, 0.00, 0.00, 10:46:34.915
94, 7364.59, -187500.02, -187500.02, -113434.79, -184196.72, -77101.16, -187500.02, -132692.59, 0.00, 0.00, 0.00, 10:46:34.919
95, 7576.53, -187500.02, -187500.02, -113460.29, -184220.44, -77122.39, -187500.02, -132713.45, 0.00, 0.00, 0.00, 10:46:34.922
96, 7686.68, -187500.02, -187500.02, -113446.56, -184201.75, -77104.64, -187500.02, -132694.55, 0.00, 0.00, 0.00, 10:46:34.926
97, 7516.60, -187500.02, -187500.02, -113486.64, -184240.55, -77143.00, -187500.02, -132732.50, 0.00, 0.00, 0.00, 10:46:34.930
98, 7358.66, -187500.02, -187500.02, -113523.34, -184277.28, -77176.34, -187500.02, -132773.33, 0.00, 0.00, 0.00, 10:46:34.934
99, 7441.14, -187500.02, -187500.02, -113478.71, -184232.80, -77128.58, -187500.02, -132737.78, 0.00, 0.00, 0.00, 10:46:34.939
100, 7536.54, -187500.02, -187500.02, -113428.80, -184181.08, -77076.39, -187500.02, -132693.27, 0.09, -0.57, 0.81, 10:46:34.943
101, 7400.98, -187500.02, -187500.02, -113419.50, -184169.22, -77065.48, -187500.02, -132680.75, 0.00, 0.00, 0.00, 10:46:34.946
102, 7281.06, -187500.02, -187500.02, -113465.90, -184214.95, -77110.92, -187500.02, -132721.61, 0.00, 0.00, 0.00, 10:46:34.950
103, 7366.71, -187500.02, -187500.02, -113448.98, -184195.17, -77091.97, -187500.02, -132699.53, 0.00, 0.00, 0.00, 10:46:34.954
104, 7587.93, -187500.02, -187500.02, -113464.83, -184211.20, -77105.67, -187500.02, -132720.05, 0.00, 0.00, 0.00, 10:46:34.958
105, 7501.20, -187500.02, -187500.02, -113466.93, -184212.66, -77105.72, -187500.02, -132733.50, 0.00, 0.00, 0.00, 10:46:34.962
106, 7287.63, -187500.02, -187500.02, -113483.22, -184227.47, -77121.20, -187500.02, -132757.31, 0.00, 0.00, 0.00, 10:46:34.967
107, 7427.51, -187500.02, -187500.02, -113541.85, -184286.14, -77176.88, -187500.02, -132813.33, 0.00, 0.00, 0.00, 10:46:34.972
108, 7590.99, -187500.02, -187500.02, -113535.01, -184278.25, -77167.74, -187500.02, -132798.84, 0.00, 0.00, 0.00, 10:46:34.974
109, 7544.23, -187500.02, -187500.02, -113511.95, -184256.73, -77145.34, -187500.02, -132772.75, 0.00, 0.00, 0.00, 10:46:34.978
110, 7283.74, -187500.02, -187500.02, -113528.35, -184273.72, -77160.66, -187500.02, -132793.47, 0.11, -0.57, 0.82, 10:46:34.983
111, 7254.35, -187500.02, -187500.02, -113502.73, -184245.84, -77132.65, -187500.02, -132774.63, 0.00, 0.00, 0.00, 10:46:34.986
112, 7455.33, -187500.02, -187500.02, -113480.79, -184223.34, -77107.50, -187500.02, -132754.19, 0.00, 0.00, 0.00, 10:46:34.990
113, 7513.61, -187500.02, -187500.02, -113481.23, -184223.92, -77105.76, -187500.02, -132752.28, 0.00, 0.00, 0.00, 10:46:34.995
114, 7312.69, -187500.02, -187500.02, -113527.68, -184271.94, -77150.73, -187500.02, -132795.83, 0.00, 0.00, 0.00, 10:46:34.999
115, 7275.13, -187500.02, -187500.02, -113551.02, -184294.34, -77170.38, -187500.02, -132816.20, 0.00, 0.00, 0.00, 10:46:35.002
116, 7446.22, -187500.02, -187500.02, -113519.43, -184261.09, -77138.70, -187500.02, -132792.64, 0.00, 0.00, 0.00, 10:46:35.006
117, 7488.42, -187500.02, -187500.02, -113486.42, -184226.25, -77106.63, -187500.02, -132769.45, 0.00, 0.00, 0.00, 10:46:35.010
118, 7259.20, -187500.02, -187500.02, -113478.22, -184216.61, -77097.69, -187500.02, -132762.05, 0.00, 0.00, 0.00, 10:46:35.015
119, 7175.96, -187500.02, -187500.02, -113507.09, -184245.94, -77125.67, -187500.02, -132787.00, 0.00, 0.00, 0.00, 10:46:35.018
120, 7473.66, -187500.02, -187500.02, -113554.32, -184293.69, -77172.23, -187500.02, -132830.13, 0.10, -0.55, 0.82, 10:46:35.022
121, 7617.12, -187500.02, -187500.02, -113576.66, -184314.84, -77193.89, -187500.02, -132851.19, 0.00, 0.00, 0.00, 10:46:35.027
122, 7375.56, -187500.02, -187500.02, -113592.39, -184328.38, -77207.08, -187500.02, -132872.52, 0.00, 0.00, 0.00, 10:46:35.031
123, 7114.36, -187500.02, -187500.02, -113590.87, -184326.06, -77203.50, -187500.02, -132880.13, 0.00, 0.00, 0.00, 10:46:35.034
124, 7243.53, -187500.02, -187500.02, -113540.31, -184275.33, -77151.96, -187500.02, -132835.09, 0.00, 0.00, 0.00, 10:46:35.038
125, 7482.09, -187500.02, -187500.02, -113518.63, -184253.45, -77128.89, -187500.02, -132812.66, 0.00, 0.00, 0.00, 10:46:35.042
126, 7415.95, -187500.02, -187500.02, -113568.78, -184304.13, -77178.02, -187500.02, -132860.34, 0.00, 0.00, 0.00, 10:46:35.046
127, 7165.70, -187500.02, -187500.02, -113594.67, -184329.67, -77201.58, -187500.02, -132882.72, 0.00, 0.00, 0.00, 10:46:35.050
128, 7249.25, -187500.02, -187500.02, -113595.41, -184328.75, -77199.57, -187500.02, -132888.25, 0.00, 0.00, 0.00, 10:46:35.055
129, 7425.67, -187500.02, -187500.02, -113558.64, -184289.33, -77160.55, -187500.02, -132857.84, 0.11, -0.55, 0.83, 10:46:35.058
130, 7336.49, -187500.02, -187500.02, -113542.25, -184270.92, -77141.88, -187500.02, -132840.48, 0.00, 0.00, 0.00, 10:46:35.062
131, 7097.37, -187500.02, -187500.02, -113553.43, -184279.22, -77150.42, -187500.02, -132845.22, 0.00, 0.00, 0.00, 10:46:35.066
132, 7208.17, -187500.02, -187500.02, -113593.26, -184317.75, -77188.82, -187500.02, -132879.23, 0.00, 0.00, 0.00, 10:46:35.070
133, 7535.33, -187500.02, -187500.02, -113620.44, -184344.36, -77214.68, -187500.02, -132908.52, 0.00, 0.00, 0.00, 10:46:35.074
134, 7513.58, -187500.02, -187500.02, -113653.63, -184374.64, -77242.53, -187500.02, -132952.55, 0.00, 0.00, 0.00, 10:46:35.080
135, 7205.93, -187500.02, -187500.02, -113713.69, -184431.64, -77297.67, -187500.02, -133021.80, 0.00, 0.00, 0.00, 10:46:35.082
136, 7107.54, -187500.02, -187500.02, -113681.28, -184396.25, -77262.20, -187500.02, -132991.67, 0.00, 0.00, 0.00, 10:46:35.085
137, 7362.98, -187500.02, -187500.02, -113647.02, -184359.06, -77225.54, -187500.02, -132952.39, 0.00, 0.00, 0.00, 10:46:35.090
138, 7460.86, -187500.02, -187500.02, -113660.78, -184372.14, -77237.92, -187500.02, -132962.72, 0.00, 0.00, 0.00, 10:46:35.094
139, 7164.49, -187500.02, -187500.02, -113680.48, -184393.19, -77256.86, -187500.02, -132981.34, 0.08, -0.59, 0.83, 10:46:35.098
140, 6991.33, -187500.02, -187500.02, -113690.67, -184404.23, -77267.20, -187500.02, -132995.27, 0.00, 0.00, 0.00, 10:46:35.102
141, 7214.94, -187500.02, -187500.02, -113644.91, -184356.95, -77221.01, -187500.02, -132959.84, 0.00, 0.00, 0.00, 10:46:35.107
142, 7325.52, -187500.02, -187500.02, -113602.20, -184311.97, -77175.63, -187500.02, -132922.83, 0.00, 0.00, 0.00, 10:46:35.110
143, 7137.72, -187500.02, -187500.02, -113627.50, -184337.48, -77199.46, -187500.02, -132945.98, 0.00, 0.00, 0.00, 10:46:35.113
144, 7034.25, -187500.02, -187500.02, -113705.24, -184415.70, -77276.35, -187500.02, -133020.70, 0.00, 0.00, 0.00, 10:46:35.118
145, 7273.64, -187500.02, -187500.02, -113724.82, -184432.38, -77294.52, -187500.02, -133040.19, 0.00, 0.00, 0.00, 10:46:35.122
146, 7440.69, -187500.02, -187500.02, -113707.08, -184412.19, -77276.02, -187500.02, -133031.52, 0.00, 0.00, 0.00, 10:46:35.126
147, 7222.34, -187500.02, -187500.02, -113722.25, -184427.34, -77290.92, -187500.02, -133057.53, 0.00, 0.00, 0.00, 10:46:35.130
148, 6955.24, -187500.02, -187500.02, -113736.87, -184442.94, -77305.79, -187500.02, -133074.02, 0.00, 0.00, 0.00, 10:46:35.134
149, 7128.82, -187500.02, -187500.02, -113741.38, -184447.94, -77309.61, -187500.02, -133074.44, 0.09, -0.55, 0.84, 10:46:35.139
150, 7390.74, -187500.02, -187500.02, -113729.02, -184432.69, -77294.81, -187500.02, -133058.17, 0.00, 0.00, 0.00, 10:46:35.141
151, 7293.33, -187500.02, -187500.02, -113741.14, -184441.83, -77304.00, -187500.02, -133066.72, 0.00, 0.00, 0.00, 10:46:35.145
152, 7002.91, -187500.02, -187500.02, -113798.67, -184497.58, -77356.57, -187500.02, -133128.23, 0.00, 0.00, 0.00, 10:46:35.150
153, 7037.13, -187500.02, -187500.02, -113770.62, -184469.34, -77326.46, -187500.02, -133110.42, 0.00, 0.00, 0.00, 10:46:35.155
154, 7222.65, -187500.02, -187500.02, -113683.59, -184380.89, -77240.77, -187500.02, -133029.52, 0.00, 0.00, 0.00, 10:46:35.158
155, 7239.06, -187500.02, -187500.02, -113671.65, -184367.48, -77230.77, -187500.02, -133017.22, 0.00, 0.00, 0.00, 10:46:35.162
156, 7020.55, -187500.02, -187500.02, -113722.52, -184418.67, -77280.53, -187500.02, -133065.78, 0.00, 0.00, 0.00, 10:46:35.166
157, 7098.33, -187500.02, -187500.02, -113793.13, -184488.20, -77347.94, -187500.02, -133133.41, 0.00, 0.00, 0.00, 10:46:35.169
158, 7314.76, -187500.02, -187500.02, -113775.31, -184468.16, -77325.03, -187500.02, -133120.44, 0.00, 0.00, 0.00, 10:46:35.174
159, 7305.33, -187500.02, -187500.02, -113757.39, -184450.67, -77303.57, -187500.02, -133112.33, 0.09, -0.55, 0.81, 10:46:35.178
160, 6994.87, -187500.02, -187500.02, -113775.31, -184471.36, -77319.38, -187500.02, -133132.39, 0.00, 0.00, 0.00, 10:46:35.182
161, 6984.09, -187500.02, -187500.02, -113811.68, -184508.77, -77353.02, -187500.02, -133164.52, 0.00, 0.00, 0.00, 10:46:35.186
162, 7263.18, -187500.02, -187500.02, -113798.31, -184491.73, -77336.20, -187500.02, -133144.38, 0.00, 0.00, 0.00, 10:46:35.189
163, 7362.84, -187500.02, -187500.02, -113787.36, -184479.27, -77322.48, -187500.02, -133128.34, 0.00, 0.00, 0.00, 10:46:35.193
164, 7058.66, -187500.02, -187500.02, -113816.80, -184507.86, -77349.02, -187500.02, -133160.94, 0.00, 0.00, 0.00, 10:46:35.198
165, 6842.81, -187500.02, -187500.02, -113809.58, -184498.27, -77340.54, -187500.02, -133162.61, 0.00, 0.00, 0.00, 10:46:35.201
166, 7067.87, -187500.02, -187500.02, -113769.95, -184456.98, -77301.07, -187500.02, -133132.39, 0.00, 0.00, 0.00, 10:46:35.206
167, 7290.38, -187500.02, -187500.02, -113745.74, -184432.75, -77277.89, -187500.02, -133108.72, 0.00, 0.00, 0.00, 10:46:35.210
168, 7156.83, -187500.02, -187500.02, -113813.76, -184501.22, -77346.31, -187500.02, -133174.30, 0.09, -0.47, 0.75, 10:46:35.214
169, 6996.27, -187500.02, -187500.02, -113904.55, -184589.06, -77433.01, -187500.02, -133261.97, 0.00, 0.00, 0.00, 10:46:35.218
