%OpenBCI Raw EEG Data
%
%Sample Rate = 250.0 Hz
%First Column = SampleIndex
%Last Column = Timestamp 
%Other Columns = EEG data in microvolts followed by Accel Data (in G) interleaved with Aux Data
0, 0.00, 0.00, 0.00, 0.00, 0.00, 0.00, 0.00, 0.00, 0.00, 0.00, 0.00, 10:48:43.255
1, 10100.95, -187500.02, -187500.02, -177195.50, -187500.02, -135882.63, -187500.02, -187500.02, 0.07, -0.63, 0.74, 10:48:43.271
2, 6454.54, -187500.02, -187500.02, -177697.61, -187500.02, -136388.73, -187500.02, -187500.02, 0.00, 0.00, 0.00, 10:48:43.273
3, 6665.38, -187500.02, -187500.02, -177684.00, -187500.02, -136380.94, -187500.02, -187500.02, 0.00, 0.00, 0.00, 10:48:43.278
4, 8708.15, -187500.02, -187500.02, -177436.61, -187500.02, -136128.41, -187500.02, -187500.02, 0.00, 0.00, 0.00, 10:48:43.282
5, 10428.70, -187500.02, -187500.02, -177222.75, -187500.02, -135908.53, -187500.02, -187500.02, 0.00, 0.00, 0.00, 10:48:43.285
6, 6898.89, -187500.02, -187500.02, -177682.13, -187500.02, -136368.48, -187500.02, -187500.02, 0.00, 0.00, 0.00, 10:48:43.288
7, 6483.91, -187500.02, -187500.02, -177714.27, -187500.02, -136405.63, -187500.02, -187500.02, 0.00, 0.00, 0.00, 10:48:43.292
8, 8179.42, -187500.02, -187500.02, -177476.11, -187500.02, -136161.88, -187500.02, -187500.02, 0.00, -0.54, 0.86, 10:48:43.297
9, 10280.26, -187500.02, -187500.02, -177183.09, -187500.02, -135862.14, -187500.02, -187500.02, 0.00, 0.00, 0.00, 10:48:43.301
10, 7635.80, -187500.02, -187500.02, -177531.78, -187500.02, -136209.88, -187500.02, -187500.02, 0.00, 0.00, 0.00, 10:48:43.305
11, 9102.93, -187500.02, -187500.02, -177456.38, -187500.02, -136139.75, -187500.02, -187500.02, 0.00, 0.00, 0.00, 10:48:43.309
12, 12218.94, -187500.02, -187500.02, -177093.95, -187500.02, -135776.83, -187500.02, -187500.02, 0.00, 0.00, 0.00, 10:48:43.313
13, 11064.52, -187500.02, -187500.02, -177235.53, -187500.02, -135916.42, -187500.02, -187500.02, 0.00, 0.00, 0.00, 10:48:43.317
14, 4499.20, -187500.02, -187500.02, -177986.69, -187500.02, -136671.80, -187500.02, -187500.02, 0.00, 0.00, 0.00, 10:48:43.321
15, 6404.27, -187500.02, -187500.02, -177774.45, -187500.02, -136464.70, -187500.02, -187500.02, 0.00, 0.00, 0.00, 10:48:43.326
16, 10863.64, -187500.02, -187500.02, -177292.95, -187500.02, -135981.33, -187500.02, -187500.02, 0.00, 0.00, 0.00, 10:48:43.330
17, 11217.56, -187500.02, -187500.02, -177241.33, -187500.02, -135923.13, -187500.02, -187500.02, -0.01, -0.56, 0.86, 10:48:43.333
18, 4856.83, -187500.02, -187500.02, -177955.67, -187500.02, -136638.88, -187500.02, -187500.02, 0.00, 0.00, 0.00, 10:48:43.337
19, 5264.66, -187500.02, -187500.02, -177906.56, -187500.02, -136597.98, -187500.02, -187500.02, 0.00, 0.00, 0.00, 10:48:43.342
20, 10180.06, -187500.02, -187500.02, -177319.78, -187500.02, -136011.91, -187500.02, -187500.02, 0.00, 0.00, 0.00, 10:48:43.345
21, 11426.17, -187500.02, -187500.02, -177178.70, -187500.02, -135865.66, -187500.02, -187500.02, 0.00, 0.00, 0.00, 10:48:43.348
22, 5496.99, -187500.02, -187500.02, -177872.84, -187500.02, -136559.13, -187500.02, -187500.02, 0.00, 0.00, 0.00, 10:48:43.353
23, 4152.28, -187500.02, -187500.02, -178032.22, -187500.02, -136726.52, -187500.02, -187500.02, 0.00, 0.00, 0.00, 10:48:43.358
24, 9343.59, -187500.02, -187500.02, -177415.20, -187500.02, -136110.98, -187500.02, -187500.02, 0.00, 0.00, 0.00, 10:48:43.361
25, 11442.39, -187500.02, -187500.02, -177129.55, -187500.02, -135819.83, -187500.02, -187500.02, 0.00, 0.00, 0.00, 10:48:43.364
26, 6560.88, -187500.02, -187500.02, -177709.17, -187500.02, -136397.06, -187500.02, -187500.02, 0.00, 0.00, 0.00, 10:48:43.369
27, 3409.11, -187500.02, -187500.02, -178046.30, -187500.02, -136743.81, -187500.02, -187500.02, -0.01, -0.60, 0.81, 10:48:43.372
28, 8599.54, -187500.02, -187500.02, -177463.88, -187500.02, -136165.95, -187500.02, -187500.02, 0.00, 0.00, 0.00, 10:48:43.377
29, 11415.10, -187500.02, -187500.02, -177110.45, -187500.02, -135807.97, -187500.02, -187500.02, 0.00, 0.00, 0.00, 10:48:43.380
30, 7680.35, -187500.02, -187500.02, -177505.44, -187500.02, -136199.48, -187500.02, -187500.02, 0.00, 0.00, 0.00, 10:48:43.385
31, 2939.86, -187500.02, -187500.02, -178059.75, -187500.02, -136758.78, -187500.02, -187500.02, 0.00, 0.00, 0.00, 10:48:43.390
32, 7622.12, -187500.02, -187500.02, -177527.86, -187500.02, -136231.20, -187500.02, -187500.02, 0.00, 0.00, 0.00, 10:48:43.392
33, 11198.51, -187500.02, -187500.02, -177116.31, -187500.02, -135815.30, -187500.02, -187500.02, 0.00, 0.00, 0.00, 10:48:43.397
34, 8927.20, -187500.02, -187500.02, -177374.59, -187500.02, -136069.53, -187500.02, -187500.02, 0.00, 0.00, 0.00, 10:48:43.402
35, 2679.73, -187500.02, -187500.02, -178130.48, -187500.02, -136828.97, -187500.02, -187500.02, 0.00, 0.00, 0.00, 10:48:43.405
36, 5142.47, -187500.02, -187500.02, -177848.47, -187500.02, -136550.77, -187500.02, -187500.02, 0.00, 0.00, 0.00, 10:48:43.408
37, 9283.53, -187500.02, -187500.02, -177372.53, -187500.02, -136070.22, -187500.02, -187500.02, 0.00, -0.62, 0.81, 10:48:43.413
38, 9618.36, -187500.02, -187500.02, -177322.50, -187500.02, -136013.83, -187500.02, -187500.02, 0.00, 0.00, 0.00, 10:48:43.418
39, 3823.22, -187500.02, -187500.02, -177996.56, -187500.02, -136687.33, -187500.02, -187500.02, 0.00, 0.00, 0.00, 10:48:43.421
40, 4710.32, -187500.02, -187500.02, -177862.86, -187500.02, -136559.14, -187500.02, -187500.02, 0.00, 0.00, 0.00, 10:48:43.425
41, 9151.92, -187500.02, -187500.02, -177368.34, -187500.02, -136058.30, -187500.02, -187500.02, 0.00, 0.00, 0.00, 10:48:43.429
42, 10304.24, -187500.02, -187500.02, -177251.55, -187500.02, -135933.34, -187500.02, -187500.02, 0.00, 0.00, 0.00, 10:48:43.432
43, 4807.82, -187500.02, -187500.02, -177884.19, -187500.02, -136566.19, -187500.02, -187500.02, 0.00, 0.00, 0.00, 10:48:43.436
44, 4070.21, -187500.02, -187500.02, -177967.22, -187500.02, -136656.34, -187500.02, -187500.02, 0.00, 0.00, 0.00, 10:48:43.442
45, 8584.46, -187500.02, -187500.02, -177441.94, -187500.02, -136133.09, -187500.02, -187500.02, 0.00, 0.00, 0.00, 10:48:43.446
46, 10479.75, -187500.02, -187500.02, -177214.91, -187500.02, -135902.78, -187500.02, -187500.02, 0.00, 0.00, 0.00, 10:48:43.449
47, 5929.90, -187500.02, -187500.02, -177748.98, -187500.02, -136437.08, -187500.02, -187500.02, 0.01, -0.55, 0.82, 10:48:43.452
48, 3517.18, -187500.02, -187500.02, -178033.22, -187500.02, -136727.47, -187500.02, -187500.02, 0.00, 0.00, 0.00, 10:48:43.456
49, 8009.50, -187500.02, -187500.02, -177516.81, -187500.02, -136211.53, -187500.02, -187500.02, 0.00, 0.00, 0.00, 10:48:43.461
50, 10501.47, -187500.02, -187500.02, -177195.28, -187500.02, -135884.91, -187500.02, -187500.02, 0.00, 0.00, 0.00, 10:48:43.465
51, 6970.91, -187500.02, -187500.02, -177593.13, -187500.02, -136278.30, -187500.02, -187500.02, 0.00, 0.00, 0.00, 10:48:43.470
52, 3021.29, -187500.02, -187500.02, -178056.81, -187500.02, -136747.72, -187500.02, -187500.02, 0.00, 0.00, 0.00, 10:48:43.473
53, 7299.10, -187500.02, -187500.02, -177563.08, -187500.02, -136258.98, -187500.02, -187500.02, 0.00, 0.00, 0.00, 10:48:43.476
54, 10453.08, -187500.02, -187500.02, -177194.86, -187500.02, -135887.17, -187500.02, -187500.02, 0.00, 0.00, 0.00, 10:48:43.481
55, 8338.34, -187500.02, -187500.02, -177449.52, -187500.02, -136137.08, -187500.02, -187500.02, 0.00, 0.00, 0.00, 10:48:43.485
56, 3111.85, -187500.02, -187500.02, -178074.91, -187500.02, -136766.56, -187500.02, -187500.02, 0.00, 0.00, 0.00, 10:48:43.489
57, 6065.50, -187500.02, -187500.02, -177738.81, -187500.02, -136436.08, -187500.02, -187500.02, 0.01, -0.62, 0.80, 10:48:43.493
58, 9608.10, -187500.02, -187500.02, -177332.34, -187500.02, -136027.44, -187500.02, -187500.02, 0.00, 0.00, 0.00, 10:48:43.497
59, 9512.30, -187500.02, -187500.02, -177343.73, -187500.02, -136033.03, -187500.02, -187500.02, 0.00, 0.00, 0.00, 10:48:43.501
60, 4147.84, -187500.02, -187500.02, -177952.00, -187500.02, -136641.70, -187500.02, -187500.02, 0.00, 0.00, 0.00, 10:48:43.505
61, 5175.50, -187500.02, -187500.02, -177835.03, -187500.02, -136530.34, -187500.02, -187500.02, 0.00, 0.00, 0.00, 10:48:43.509
62, 8617.02, -187500.02, -187500.02, -177400.89, -187500.02, -136091.41, -187500.02, -187500.02, 0.00, 0.00, 0.00, 10:48:43.514
63, 9938.23, -187500.02, -187500.02, -177270.22, -187500.02, -135952.45, -187500.02, -187500.02, 0.00, 0.00, 0.00, 10:48:43.516
64, 5547.52, -187500.02, -187500.02, -177831.44, -187500.02, -136512.41, -187500.02, -187500.02, 0.00, 0.00, 0.00, 10:48:43.521
65, 4802.43, -187500.02, -187500.02, -177928.23, -187500.02, -136615.95, -187500.02, -187500.02, 0.00, 0.00, 0.00, 10:48:43.525
66, 8109.35, -187500.02, -187500.02, -177527.56, -187500.02, -136212.02, -187500.02, -187500.02, -0.03, -0.62, 0.80, 10:48:43.529
67, 10030.70, -187500.02, -187500.02, -177306.08, -187500.02, -135981.73, -187500.02, -187500.02, 0.00, 0.00, 0.00, 10:48:43.532
68, 6713.86, -187500.02, -187500.02, -177697.95, -187500.02, -136371.03, -187500.02, -187500.02, 0.00, 0.00, 0.00, 10:48:43.536
69, 4649.25, -187500.02, -187500.02, -177970.89, -187500.02, -136653.06, -187500.02, -187500.02, 0.00, 0.00, 0.00, 10:48:43.541
70, 7548.59, -187500.02, -187500.02, -177616.64, -187500.02, -136304.22, -187500.02, -187500.02, 0.00, 0.00, 0.00, 10:48:43.543
71, 9955.65, -187500.02, -187500.02, -177352.28, -187500.02, -136033.63, -187500.02, -187500.02, 0.00, 0.00, 0.00, 10:48:43.549
72, 9712.12, -187500.02, -187500.02, -177357.80, -187500.02, -136032.44, -187500.02, -187500.02, 0.00, 0.00, 0.00, 10:48:43.553
73, 7061.39, -187500.02, -187500.02, -177723.11, -187500.02, -136400.55, -187500.02, -187500.02, 0.00, 0.00, 0.00, 10:48:43.557
74, 7662.31, -187500.02, -187500.02, -177643.20, -187500.02, -136322.75, -187500.02, -187500.02, 0.00, 0.00, 0.00, 10:48:43.561
75, 9158.87, -187500.02, -187500.02, -177430.75, -187500.02, -136103.67, -187500.02, -187500.02, 0.00, 0.00, 0.00, 10:48:43.564
76, 10028.56, -187500.02, -187500.02, -177306.23, -187500.02, -135974.17, -187500.02, -187500.02, -0.01, -0.61, 0.82, 10:48:43.568
77, 7081.26, -187500.02, -187500.02, -177695.27, -187500.02, -136365.33, -187500.02, -187500.02, 0.00, 0.00, 0.00, 10:48:43.572
78, 7188.83, -187500.02, -187500.02, -177694.47, -187500.02, -136367.50, -187500.02, -187500.02, 0.00, 0.00, 0.00, 10:48:43.576
79, 8615.77, -187500.02, -187500.02, -177507.47, -187500.02, -136175.41, -187500.02, -187500.02, 0.00, 0.00, 0.00, 10:48:43.581
80, 10210.68, -187500.02, -187500.02, -177304.61, -187500.02, -135967.94, -187500.02, -187500.02, 0.00, 0.00, 0.00, 10:48:43.585
81, 7528.47, -187500.02, -187500.02, -177689.59, -187500.02, -136353.80, -187500.02, -187500.02, 0.00, 0.00, 0.00, 10:48:43.589
82, 6945.11, -187500.02, -187500.02, -177777.64, -187500.02, -136448.39, -187500.02, -187500.02, 0.00, 0.00, 0.00, 10:48:43.592
83, 8221.51, -187500.02, -187500.02, -177599.67, -187500.02, -136269.47, -187500.02, -187500.02, 0.00, 0.00, 0.00, 10:48:43.597
84, 10112.53, -187500.02, -187500.02, -177332.00, -187500.02, -135999.28, -187500.02, -187500.02, 0.00, 0.00, 0.00, 10:48:43.600
85, 7957.87, -187500.02, -187500.02, -177588.67, -187500.02, -136258.02, -187500.02, -187500.02, 0.00, 0.00, 0.00, 10:48:43.605
86, 6658.74, -187500.02, -187500.02, -177758.52, -187500.02, -136434.02, -187500.02, -187500.02, 0.01, -0.63, 0.78, 10:48:43.609
87, 7862.54, -187500.02, -187500.02, -177581.31, -187500.02, -136257.22, -187500.02, -187500.02, 0.00, 0.00, 0.00, 10:48:43.613
88, 9892.19, -187500.02, -187500.02, -177353.20, -187500.02, -136026.31, -187500.02, -187500.02, 0.00, 0.00, 0.00, 10:48:43.617
89, 8577.55, -187500.02, -187500.02, -177536.56, -187500.02, -136209.48, -187500.02, -187500.02, 0.00, 0.00, 0.00, 10:48:43.621
90, 6539.90, -187500.02, -187500.02, -177794.31, -187500.02, -136471.77, -187500.02, -187500.02, 0.00, 0.00, 0.00, 10:48:43.625
91, 7600.06, -187500.02, -187500.02, -177647.19, -187500.02, -136322.19, -187500.02, -187500.02, 0.00, 0.00, 0.00, 10:48:43.627
92, 9509.17, -187500.02, -187500.02, -177405.05, -187500.02, -136075.22, -187500.02, -187500.02, 0.00, 0.00, 0.00, 10:48:43.632
93, 9105.18, -187500.02, -187500.02, -177468.20, -187500.02, -136135.84, -187500.02, -187500.02, 0.00, 0.00, 0.00, 10:48:43.637
94, 6534.40, -187500.02, -187500.02, -177827.23, -187500.02, -136497.11, -187500.02, -187500.02, 0.00, 0.00, 0.00, 10:48:43.641
95, 7271.54, -187500.02, -187500.02, -177666.28, -187500.02, -136338.13, -187500.02, -187500.02, 0.00, 0.00, 0.00, 10:48:43.645
96, 8988.53, -187500.02, -187500.02, -177413.23, -187500.02, -136079.94, -187500.02, -187500.02, 0.03, -0.61, 0.77, 10:48:43.649
97, 9536.06, -187500.02, -187500.02, -177374.14, -187500.02, -136037.83, -187500.02, -187500.02, 0.00, 0.00, 0.00, 10:48:43.653
98, 6721.04, -187500.02, -187500.02, -177811.83, -187500.02, -136480.48, -187500.02, -187500.02, 0.00, 0.00, 0.00, 10:48:43.656
99, 7093.97, -187500.02, -187500.02, -177729.00, -187500.02, -136400.48, -187500.02, -187500.02, 0.00, 0.00, 0.00, 10:48:43.660
100, 8632.71, -187500.02, -187500.02, -177535.72, -187500.02, -136202.55, -187500.02, -187500.02, 0.00, 0.00, 0.00, 10:48:43.665
101, 9829.74, -187500.02, -187500.02, -177399.47, -187500.02, -136061.02, -187500.02, -187500.02, 0.00, 0.00, 0.00, 10:48:43.669
102, 6949.09, -187500.02, -187500.02, -177762.66, -187500.02, -136425.30, -187500.02, -187500.02, 0.00, 0.00, 0.00, 10:48:43.673
103, 6830.92, -187500.02, -187500.02, -177774.45, -187500.02, -136439.20, -187500.02, -187500.02, 0.00, 0.00, 0.00, 10:48:43.676
104, 8151.95, -187500.02, -187500.02, -177563.17, -187500.02, -136222.83, -187500.02, -187500.02, 0.00, 0.00, 0.00, 10:48:43.679
105, 9884.50, -187500.02, -187500.02, -177362.63, -187500.02, -136015.80, -187500.02, -187500.02, 0.00, 0.00, 0.00, 10:48:43.684
106, 7447.67, -187500.02, -187500.02, -177724.72, -187500.02, -136377.80, -187500.02, -187500.02, 0.04, -0.64, 0.75, 10:48:43.688
107, 6684.02, -187500.02, -187500.02, -177837.00, -187500.02, -136495.38, -187500.02, -187500.02, 0.00, 0.00, 0.00, 10:48:43.693
108, 7863.57, -187500.02, -187500.02, -177641.53, -187500.02, -136297.88, -187500.02, -187500.02, 0.00, 0.00, 0.00, 10:48:43.697
109, 9773.79, -187500.02, -187500.02, -177409.41, -187500.02, -136060.55, -187500.02, -187500.02, 0.00, 0.00, 0.00, 10:48:43.701
110, 7910.80, -187500.02, -187500.02, -177637.27, -187500.02, -136286.38, -187500.02, -187500.02, 0.00, 0.00, 0.00, 10:48:43.703
111, 6445.15, -187500.02, -187500.02, -177822.78, -187500.02, -136477.84, -187500.02, -187500.02, 0.00, 0.00, 0.00, 10:48:43.708
112, 7561.98, -187500.02, -187500.02, -177653.33, -187500.02, -136311.27, -187500.02, -187500.02, 0.00, 0.00, 0.00, 10:48:43.712
113, 9467.64, -187500.02, -187500.02, -177386.88, -187500.02, -136039.55, -187500.02, -187500.02, 0.00, 0.00, 0.00, 10:48:43.715
114, 8486.02, -187500.02, -187500.02, -177542.52, -187500.02, -136189.80, -187500.02, -187500.02, 0.00, 0.00, 0.00, 10:48:43.720
115, 6440.34, -187500.02, -187500.02, -177857.09, -187500.02, -136509.75, -187500.02, -187500.02, 0.03, -0.65, 0.76, 10:48:43.725
116, 7405.89, -187500.02, -187500.02, -177719.16, -187500.02, -136372.84, -187500.02, -187500.02, 0.00, 0.00, 0.00, 10:48:43.729
117, 9167.66, -187500.02, -187500.02, -177464.95, -187500.02, -136113.41, -187500.02, -187500.02, 0.00, 0.00, 0.00, 10:48:43.732
118, 8971.74, -187500.02, -187500.02, -177474.77, -187500.02, -136119.02, -187500.02, -187500.02, 0.00, 0.00, 0.00, 10:48:43.736
119, 6390.94, -187500.02, -187500.02, -177799.89, -187500.02, -136449.23, -187500.02, -187500.02, 0.00, 0.00, 0.00, 10:48:43.740
120, 7172.97, -187500.02, -187500.02, -177705.77, -187500.02, -136359.03, -187500.02, -187500.02, 0.00, 0.00, 0.00, 10:48:43.744
121, 8801.76, -187500.02, -187500.02, -177497.41, -187500.02, -136145.97, -187500.02, -187500.02, 0.00, 0.00, 0.00, 10:48:43.747
122, 9411.40, -187500.02, -187500.02, -177410.75, -187500.02, -136056.05, -187500.02, -187500.02, 0.00, 0.00, 0.00, 10:48:43.753
123, 6667.68, -187500.02, -187500.02, -177810.73, -187500.02, -136460.55, -187500.02, -187500.02, 0.00, 0.00, 0.00, 10:48:43.757
124, 7050.72, -187500.02, -187500.02, -177759.64, -187500.02, -136417.14, -187500.02, -187500.02, 0.00, 0.00, 0.00, 10:48:43.760
125, 8523.48, -187500.02, -187500.02, -177591.89, -187500.02, -136247.98, -187500.02, -187500.02, 0.02, -0.64, 0.77, 10:48:43.764
126, 9714.98, -187500.02, -187500.02, -177406.84, -187500.02, -136059.13, -187500.02, -187500.02, 0.00, 0.00, 0.00, 10:48:43.769
127, 6980.47, -187500.02, -187500.02, -177776.77, -187500.02, -136427.83, -187500.02, -187500.02, 0.00, 0.00, 0.00, 10:48:43.772
128, 6783.66, -187500.02, -187500.02, -177774.64, -187500.02, -136427.33, -187500.02, -187500.02, 0.00, 0.00, 0.00, 10:48:43.777
129, 8149.51, -187500.02, -187500.02, -177592.52, -187500.02, -136239.11, -187500.02, -187500.02, 0.00, 0.00, 0.00, 10:48:43.781
130, 9838.10, -187500.02, -187500.02, -177382.80, -187500.02, -136022.00, -187500.02, -187500.02, 0.00, 0.00, 0.00, 10:48:43.784
131, 7548.54, -187500.02, -187500.02, -177707.36, -187500.02, -136344.72, -187500.02, -187500.02, 0.00, 0.00, 0.00, 10:48:43.788
132, 6677.67, -187500.02, -187500.02, -177841.56, -187500.02, -136484.02, -187500.02, -187500.02, 0.00, 0.00, 0.00, 10:48:43.792
133, 7910.66, -187500.02, -187500.02, -177682.02, -187500.02, -136325.16, -187500.02, -187500.02, 0.00, 0.00, 0.00, 10:48:43.796
134, 9772.03, -187500.02, -187500.02, -177442.48, -187500.02, -136081.02, -187500.02, -187500.02, 0.00, 0.00, 0.00, 10:48:43.801
135, 8091.51, -187500.02, -187500.02, -177620.77, -187500.02, -136255.00, -187500.02, -187500.02, 0.01, -0.63, 0.78, 10:48:43.804
136, 6502.46, -187500.02, -187500.02, -177852.09, -187500.02, -136491.03, -187500.02, -187500.02, 0.00, 0.00, 0.00, 10:48:43.809
137, 7603.21, -187500.02, -187500.02, -177697.77, -187500.02, -136339.75, -187500.02, -187500.02, 0.00, 0.00, 0.00, 10:48:43.813
138, 9460.31, -187500.02, -187500.02, -177424.50, -187500.02, -136062.17, -187500.02, -187500.02, 0.00, 0.00, 0.00, 10:48:43.816
139, 8757.21, -187500.02, -187500.02, -177546.69, -187500.02, -136180.50, -187500.02, -187500.02, 0.00, 0.00, 0.00, 10:48:43.820
140, 6568.69, -187500.02, -187500.02, -177909.53, -187500.02, -136545.50, -187500.02, -187500.02, 0.00, 0.00, 0.00, 10:48:43.826
141, 7435.51, -187500.02, -187500.02, -177782.58, -187500.02, -136420.67, -187500.02, -187500.02, 0.00, 0.00, 0.00, 10:48:43.828
142, 9132.68, -187500.02, -187500.02, -177521.22, -187500.02, -136152.34, -187500.02, -187500.02, 0.00, 0.00, 0.00, 10:48:43.832
143, 9285.76, -187500.02, -187500.02, -177533.22, -187500.02, -136158.47, -187500.02, -187500.02, 0.00, 0.00, 0.00, 10:48:43.837
144, 6586.39, -187500.02, -187500.02, -177893.73, -187500.02, -136524.20, -187500.02, -187500.02, 0.00, 0.00, 0.00, 10:48:43.840
145, 7148.71, -187500.02, -187500.02, -177781.98, -187500.02, -136415.17, -187500.02, -187500.02, 0.02, -0.62, 0.78, 10:48:43.844
146, 8717.34, -187500.02, -187500.02, -177577.03, -187500.02, -136204.95, -187500.02, -187500.02, 0.00, 0.00, 0.00, 10:48:43.848
147, 9585.32, -187500.02, -187500.02, -177426.11, -187500.02, -136049.83, -187500.02, -187500.02, 0.00, 0.00, 0.00, 10:48:43.853
148, 6831.61, -187500.02, -187500.02, -177822.67, -187500.02, -136445.44, -187500.02, -187500.02, 0.00, 0.00, 0.00, 10:48:43.857
149, 6945.38, -187500.02, -187500.02, -177810.78, -187500.02, -136436.97, -187500.02, -187500.02, 0.00, 0.00, 0.00, 10:48:43.860
150, 8294.55, -187500.02, -187500.02, -177599.22, -187500.02, -136224.78, -187500.02, -187500.02, 0.00, 0.00, 0.00, 10:48:43.865
151, 9798.74, -187500.02, -187500.02, -177411.17, -187500.02, -136033.22, -187500.02, -187500.02, 0.00, 0.00, 0.00, 10:48:43.868
152, 7192.93, -187500.02, -187500.02, -177763.16, -187500.02, -136384.22, -187500.02, -187500.02, 0.00, 0.00, 0.00, 10:48:43.872
153, 6689.94, -187500.02, -187500.02, -177799.16, -187500.02, -136422.73, -187500.02, -187500.02, 0.00, 0.00, 0.00, 10:48:43.876
154, 7919.13, -187500.02, -187500.02, -177600.52, -187500.02, -136219.95, -187500.02, -187500.02, 0.00, 0.00, 0.00, 10:48:43.883
155, 9771.76, -187500.02, -187500.02, -177385.81, -187500.02, -135997.48, -187500.02, -187500.02, 0.02, -0.63, 0.76, 10:48:43.885
156, 7757.80, -187500.02, -187500.02, -177714.67, -187500.02, -136328.50, -187500.02, -187500.02, 0.00, 0.00, 0.00, 10:48:43.888
157, 6603.64, -187500.02, -187500.02, -177896.19, -187500.02, -136518.02, -187500.02, -187500.02, 0.00, 0.00, 0.00, 10:48:43.893
158, 7714.39, -187500.02, -187500.02, -177727.86, -187500.02, -136353.38, -187500.02, -187500.02, 0.00, 0.00, 0.00, 10:48:43.895
159, 9561.65, -187500.02, -187500.02, -177445.06, -187500.02, -136063.64, -187500.02, -187500.02, 0.00, 0.00, 0.00, 10:48:43.900
160, 8219.81, -187500.02, -187500.02, -177613.27, -187500.02, -136226.09, -187500.02, -187500.02, 0.00, 0.00, 0.00, 10:48:43.904
161, 6459.03, -187500.02, -187500.02, -177905.75, -187500.02, -136521.95, -187500.02, -187500.02, 0.00, 0.00, 0.00, 10:48:43.908
162, 7468.81, -187500.02, -187500.02, -177759.42, -187500.02, -136379.14, -187500.02, -187500.02, 0.00, 0.00, 0.00, 10:48:43.912
163, 9230.51, -187500.02, -187500.02, -177479.23, -187500.02, -136099.66, -187500.02, -187500.02, 0.00, 0.00, 0.00, 10:48:43.916
164, 8778.40, -187500.02, -187500.02, -177541.58, -187500.02, -136161.77, -187500.02, -187500.02, 0.01, -0.66, 0.77, 10:48:43.921
165, 6435.36, -187500.02, -187500.02, -177870.91, -187500.02, -136495.30, -187500.02, -187500.02, 0.00, 0.00, 0.00, 10:48:43.923
166, 7289.93, -187500.02, -187500.02, -177764.73, -187500.02, -136389.06, -187500.02, -187500.02, 0.00, 0.00, 0.00, 10:48:43.929
167, 8936.45, -187500.02, -187500.02, -177557.22, -187500.02, -136175.97, -187500.02, -187500.02, 0.00, 0.00, 0.00, 10:48:43.932
168, 9216.83, -187500.02, -187500.02, -177520.25, -187500.02, -136132.22, -187500.02, -187500.02, 0.00, 0.00, 0.00, 10:48:43.936
169, 6480.73, -187500.02, -187500.02, -177846.09, -187500.02, -136459.03, -187500.02, -187500.02, 0.00, 0.00, 0.00, 10:48:43.940
170, 7043.66, -187500.02, -187500.02, -177786.86, -187500.02, -136403.66, -187500.02, -187500.02, 0.00, 0.00, 0.00, 10:48:43.945
171, 8448.53, -187500.02, -187500.02, -177542.83, -187500.02, -136158.48, -187500.02, -187500.02, 0.00, 0.00, 0.00, 10:48:43.948
172, 9503.22, -187500.02, -187500.02, -177427.94, -187500.02, -136039.58, -187500.02, -187500.02, 0.00, 0.00, 0.00, 10:48:43.951
173, 6843.79, -187500.02, -187500.02, -177826.45, -187500.02, -136439.61, -187500.02, -187500.02, 0.00, 0.00, 0.00, 10:48:43.956
174, 6843.30, -187500.02, -187500.02, -177780.34, -187500.02, -136396.73, -187500.02, -187500.02, 0.00, -0.63, 0.79, 10:48:43.960
175, 8210.31, -187500.02, -187500.02, -177621.63, -187500.02, -136236.78, -187500.02, -187500.02, 0.00, 0.00, 0.00, 10:48:43.964
176, 9667.17, -187500.02, -187500.02, -177428.39, -187500.02, -136041.67, -187500.02, -187500.02, 0.00, 0.00, 0.00, 10:48:43.968
177, 7245.00, -187500.02, -187500.02, -177750.88, -187500.02, -136363.55, -187500.02, -187500.02, 0.00, 0.00, 0.00, 10:48:43.972
178, 6720.19, -187500.02, -187500.02, -177852.11, -187500.02, -136472.19, -187500.02, -187500.02, 0.00, 0.00, 0.00, 10:48:43.977
179, 7869.24, -187500.02, -187500.02, -177639.16, -187500.02, -136257.73, -187500.02, -187500.02, 0.00, 0.00, 0.00, 10:48:43.979
180, 9653.96, -187500.02, -187500.02, -177401.13, -187500.02, -136011.80, -187500.02, -187500.02, 0.00, 0.00, 0.00, 10:48:43.983
181, 7834.76, -187500.02, -187500.02, -177692.61, -187500.02, -136302.59, -187500.02, -187500.02, 0.00, 0.00, 0.00, 10:48:43.988
182, 6519.31, -187500.02, -187500.02, -177848.73, -187500.02, -136464.08, -187500.02, -187500.02, 0.00, 0.00, 0.00, 10:48:43.992
183, 7656.88, -187500.02, -187500.02, -177673.34, -187500.02, -136288.89, -187500.02, -187500.02, 0.00, 0.00, 0.00, 10:48:43.996
184, 9488.61, -187500.02, -187500.02, -177419.33, -187500.02, -136029.67, -187500.02, -187500.02, -0.00, -0.66, 0.78, 10:48:44.000
185, 8378.51, -187500.02, -187500.02, -177544.73, -187500.02, -136151.52, -187500.02, -187500.02, 0.00, 0.00, 0.00, 10:48:44.004
186, 6436.05, -187500.02, -187500.02, -177831.20, -187500.02, -136442.47, -187500.02, -187500.02, 0.00, 0.00, 0.00, 10:48:44.007
187, 7425.05, -187500.02, -187500.02, -177682.02, -187500.02, -136294.39, -187500.02, -187500.02, 0.00, 0.00, 0.00, 10:48:44.011
188, 9227.92, -187500.02, -187500.02, -177455.25, -187500.02, -136062.50, -187500.02, -187500.02, 0.00, 0.00, 0.00, 10:48:44.016
189, 9060.28, -187500.02, -187500.02, -177524.23, -187500.02, -136129.86, -187500.02, -187500.02, 0.00, 0.00, 0.00, 10:48:44.020
190, 6546.42, -187500.02, -187500.02, -177881.61, -187500.02, -136492.63, -187500.02, -187500.02, 0.00, 0.00, 0.00, 10:48:44.024
191, 7281.62, -187500.02, -187500.02, -177782.69, -187500.02, -136399.11, -187500.02, -187500.02, 0.00, 0.00, 0.00, 10:48:44.028
192, 8868.55, -187500.02, -187500.02, -177548.58, -187500.02, -136163.72, -187500.02, -187500.02, 0.00, 0.00, 0.00, 10:48:44.032
193, 9433.26, -187500.02, -187500.02, -177438.27, -187500.02, -136049.59, -187500.02, -187500.02, 0.00, 0.00, 0.00, 10:48:44.035
194, 6608.43, -187500.02, -187500.02, -177778.11, -187500.02, -136391.56, -187500.02, -187500.02, 0.00, -0.65, 0.78, 10:48:44.039
195, 6998.55, -187500.02, -187500.02, -177748.86, -187500.02, -136367.23, -187500.02, -187500.02, 0.00, 0.00, 0.00, 10:48:44.044
196, 8493.57, -187500.02, -187500.02, -177591.89, -187500.02, -136209.52, -187500.02, -187500.02, 0.00, 0.00, 0.00, 10:48:44.048
197, 9755.24, -187500.02, -187500.02, -177430.94, -187500.02, -136043.55, -187500.02, -187500.02, 0.00, 0.00, 0.00, 10:48:44.053
198, 6979.73, -187500.02, -187500.02, -177755.13, -187500.02, -136367.30, -187500.02, -187500.02, 0.00, 0.00, 0.00, 10:48:44.055
199, 6771.17, -187500.02, -187500.02, -177782.75, -187500.02, -136398.97, -187500.02, -187500.02, 0.00, 0.00, 0.00, 10:48:44.059
200, 8078.57, -187500.02, -187500.02, -177606.22, -187500.02, -136220.22, -187500.02, -187500.02, 0.00, 0.00, 0.00, 10:48:44.064
201, 9796.79, -187500.02, -187500.02, -177383.30, -187500.02, -135993.02, -187500.02, -187500.02, 0.00, 0.00, 0.00, 10:48:44.067
202, 7522.93, -187500.02, -187500.02, -177709.91, -187500.02, -136318.97, -187500.02, -187500.02, 0.00, 0.00, 0.00, 10:48:44.071
203, 6647.97, -187500.02, -187500.02, -177852.20, -187500.02, -136469.08, -187500.02, -187500.02, 0.03, -0.61, 0.78, 10:48:44.076
204, 7793.00, -187500.02, -187500.02, -177669.20, -187500.02, -136287.17, -187500.02, -187500.02, 0.00, 0.00, 0.00, 10:48:44.081
205, 9685.57, -187500.02, -187500.02, -177420.63, -187500.02, -136031.23, -187500.02, -187500.02, 0.00, 0.00, 0.00, 10:48:44.083
206, 8083.71, -187500.02, -187500.02, -177671.80, -187500.02, -136280.91, -187500.02, -187500.02, 0.00, 0.00, 0.00, 10:48:44.087
207, 6475.08, -187500.02, -187500.02, -177889.50, -187500.02, -136502.67, -187500.02, -187500.02, 0.00, 0.00, 0.00, 10:48:44.091
208, 7532.16, -187500.02, -187500.02, -177722.42, -187500.02, -136337.64, -187500.02, -187500.02, 0.00, 0.00, 0.00, 10:48:44.095
209, 9372.26, -187500.02, -187500.02, -177442.72, -187500.02, -136056.38, -187500.02, -187500.02, 0.00, 0.00, 0.00, 10:48:44.099
210, 8624.96, -187500.02, -187500.02, -177561.27, -187500.02, -136174.09, -187500.02, -187500.02, 0.00, 0.00, 0.00, 10:48:44.105
211, 6416.31, -187500.02, -187500.02, -177868.83, -187500.02, -136486.56, -187500.02, -187500.02, 0.00, 0.00, 0.00, 10:48:44.109
212, 7328.94, -187500.02, -187500.02, -177721.98, -187500.02, -136339.31, -187500.02, -187500.02, 0.00, 0.00, 0.00, 10:48:44.111
213, 9092.38, -187500.02, -187500.02, -177528.14, -187500.02, -136138.38, -187500.02, -187500.02, 0.03, -0.62, 0.77, 10:48:44.115
214, 9126.91, -187500.02, -187500.02, -177514.33, -187500.02, -136119.03, -187500.02, -187500.02, 0.00, 0.00, 0.00, 10:48:44.119
215, 6538.31, -187500.02, -187500.02, -177884.98, -187500.02, -136494.59, -187500.02, -187500.02, 0.00, 0.00, 0.00, 10:48:44.124
216, 7125.60, -187500.02, -187500.02, -177779.22, -187500.02, -136394.92, -187500.02, -187500.02, 0.00, 0.00, 0.00, 10:48:44.127
217, 8641.43, -187500.02, -187500.02, -177553.92, -187500.02, -136166.86, -187500.02, -187500.02, 0.00, 0.00, 0.00, 10:48:44.132
218, 9471.17, -187500.02, -187500.02, -177461.56, -187500.02, -136070.69, -187500.02, -187500.02, 0.00, 0.00, 0.00, 10:48:44.135
219, 6762.18, -187500.02, -187500.02, -177871.41, -187500.02, -136484.11, -187500.02, -187500.02, 0.00, 0.00, 0.00, 10:48:44.139
220, 6961.43, -187500.02, -187500.02, -177848.11, -187500.02, -136468.13, -187500.02, -187500.02, 0.00, 0.00, 0.00, 10:48:44.143
221, 8271.44, -187500.02, -187500.02, -177624.45, -187500.02, -136245.97, -187500.02, -187500.02, 0.00, 0.00, 0.00, 10:48:44.147
222, 9609.86, -187500.02, -187500.02, -177434.20, -187500.02, -136051.02, -187500.02, -187500.02, 0.00, 0.00, 0.00, 10:48:44.151
223, 6973.59, -187500.02, -187500.02, -177760.33, -187500.02, -136376.91, -187500.02, -187500.02, 0.01, -0.65, 0.77, 10:48:44.156
224, 6637.40, -187500.02, -187500.02, -177778.38, -187500.02, -136398.14, -187500.02, -187500.02, 0.00, 0.00, 0.00, 10:48:44.160
225, 7931.49, -187500.02, -187500.02, -177591.05, -187500.02, -136207.69, -187500.02, -187500.02, 0.00, 0.00, 0.00, 10:48:44.163
226, 9620.28, -187500.02, -187500.02, -177358.78, -187500.02, -135971.00, -187500.02, -187500.02, 0.00, 0.00, 0.00, 10:48:44.168
227, 7540.54, -187500.02, -187500.02, -177673.88, -187500.02, -136284.84, -187500.02, -187500.02, 0.00, 0.00, 0.00, 10:48:44.171
228, 6626.53, -187500.02, -187500.02, -177869.83, -187500.02, -136486.28, -187500.02, -187500.02, 0.00, 0.00, 0.00, 10:48:44.176
229, 7792.18, -187500.02, -187500.02, -177711.45, -187500.02, -136331.63, -187500.02, -187500.02, 0.00, 0.00, 0.00, 10:48:44.181
230, 9557.54, -187500.02, -187500.02, -177456.22, -187500.02, -136072.20, -187500.02, -187500.02, 0.00, 0.00, 0.00, 10:48:44.183
231, 8070.92, -187500.02, -187500.02, -177655.84, -187500.02, -136271.25, -187500.02, -187500.02, 0.00, 0.00, 0.00, 10:48:44.188
232, 6378.52, -187500.02, -187500.02, -177855.97, -187500.02, -136477.83, -187500.02, -187500.02, 0.00, 0.00, 0.00, 10:48:44.192
233, 7464.54, -187500.02, -187500.02, -177659.61, -187500.02, -136282.14, -187500.02, -187500.02, -0.00, -0.66, 0.77, 10:48:44.196
234, 9264.64, -187500.02, -187500.02, -177420.05, -187500.02, -136034.48, -187500.02, -187500.02, 0.00, 0.00, 0.00, 10:48:44.200
235, 8701.98, -187500.02, -187500.02, -177548.80, -187500.02, -136159.83, -187500.02, -187500.02, 0.00, 0.00, 0.00, 10:48:44.203
236, 6454.80, -187500.02, -187500.02, -177881.64, -187500.02, -136499.69, -187500.02, -187500.02, 0.00, 0.00, 0.00, 10:48:44.207
237, 7317.42, -187500.02, -187500.02, -177711.78, -187500.02, -136333.30, -187500.02, -187500.02, 0.00, 0.00, 0.00, 10:48:44.213
238, 9004.36, -187500.02, -187500.02, -177514.11, -187500.02, -136131.78, -187500.02, -187500.02, 0.00, 0.00, 0.00, 10:48:44.217
239, 9184.69, -187500.02, -187500.02, -177493.31, -187500.02, -136107.56, -187500.02, -187500.02, 0.00, 0.00, 0.00, 10:48:44.219
240, 6497.72, -187500.02, -187500.02, -177825.72, -187500.02, -136443.30, -187500.02, -187500.02, 0.00, 0.00, 0.00, 10:48:44.223
241, 7090.22, -187500.02, -187500.02, -177727.47, -187500.02, -136349.55, -187500.02, -187500.02, 0.00, 0.00, 0.00, 10:48:44.227
242, 8595.30, -187500.02, -187500.02, -177529.31, -187500.02, -136150.17, -187500.02, -187500.02, 0.00, 0.00, 0.00, 10:48:44.232
243, 9579.53, -187500.02, -187500.02, -177413.45, -187500.02, -136033.41, -187500.02, -187500.02, 0.00, -0.64, 0.79, 10:48:44.236
244, 6901.41, -187500.02, -187500.02, -177842.47, -187500.02, -136468.06, -187500.02, -187500.02, 0.00, 0.00, 0.00, 10:48:44.239
245, 6952.15, -187500.02, -187500.02, -177823.56, -187500.02, -136454.80, -187500.02, -187500.02, 0.00, 0.00, 0.00, 10:48:44.244
246, 8290.57, -187500.02, -187500.02, -177630.77, -187500.02, -136259.42, -187500.02, -187500.02, 0.00, 0.00, 0.00, 10:48:44.246
247, 9756.13, -187500.02, -187500.02, -177419.69, -187500.02, -136042.88, -187500.02, -187500.02, 0.00, 0.00, 0.00, 10:48:44.251
248, 7246.86, -187500.02, -187500.02, -177739.55, -187500.02, -136361.66, -187500.02, -187500.02, 0.00, 0.00, 0.00, 10:48:44.256
249, 6693.54, -187500.02, -187500.02, -177825.95, -187500.02, -136450.22, -187500.02, -187500.02, 0.00, 0.00, 0.00, 10:48:44.260
250, 7888.13, -187500.02, -187500.02, -177610.58, -187500.02, -136231.55, -187500.02, -187500.02, 0.00, 0.00, 0.00, 10:48:44.264
251, 9785.28, -187500.02, -187500.02, -177427.97, -187500.02, -136043.47, -187500.02, -187500.02, 0.00, 0.00, 0.00, 10:48:44.267
252, 7882.48, -187500.02, -187500.02, -177730.98, -187500.02, -136344.78, -187500.02, -187500.02, 0.02, -0.63, 0.78, 10:48:44.272
253, 6559.86, -187500.02, -187500.02, -177903.58, -187500.02, -136524.31, -187500.02, -187500.02, 0.00, 0.00, 0.00, 10:48:44.275
254, 7690.81, -187500.02, -187500.02, -177738.86, -187500.02, -136362.00, -187500.02, -187500.02, 0.00, 0.00, 0.00, 10:48:44.279
255, 9559.68, -187500.02, -187500.02, -177483.11, -187500.02, -136100.27, -187500.02, -187500.02, 0.00, 0.00, 0.00, 10:48:44.283
0, 8395.72, -187500.02, -187500.02, -177619.03, -187500.02, -136232.89, -187500.02, -187500.02, 0.00, 0.00, 0.00, 10:48:44.288
1, 6445.13, -187500.02, -187500.02, -177922.42, -187500.02, -136540.14, -187500.02, -187500.02, 0.00, 0.00, 0.00, 10:48:44.292
2, 7402.54, -187500.02, -187500.02, -177754.41, -187500.02, -136374.17, -187500.02, -187500.02, 0.00, 0.00, 0.00, 10:48:44.296
3, 9211.00, -187500.02, -187500.02, -177512.88, -187500.02, -136127.39, -187500.02, -187500.02, 0.00, 0.00, 0.00, 10:48:44.299
4, 8960.77, -187500.02, -187500.02, -177560.73, -187500.02, -136173.45, -187500.02, -187500.02, 0.00, 0.00, 0.00, 10:48:44.303
5, 6483.37, -187500.02, -187500.02, -177917.63, -187500.02, -136534.53, -187500.02, -187500.02, 0.00, 0.00, 0.00, 10:48:44.307
6, 7244.22, -187500.02, -187500.02, -177813.83, -187500.02, -136436.09, -187500.02, -187500.02, 0.03, -0.63, 0.77, 10:48:44.312
7, 8810.28, -187500.02, -187500.02, -177552.53, -187500.02, -136171.34, -187500.02, -187500.02, 0.00, 0.00, 0.00, 10:48:44.316
8, 9353.89, -187500.02, -187500.02, -177473.34, -187500.02, -136088.64, -187500.02, -187500.02, 0.00, 0.00, 0.00, 10:48:44.319
9, 6681.74, -187500.02, -187500.02, -177897.64, -187500.02, -136517.55, -187500.02, -187500.02, 0.00, 0.00, 0.00, 10:48:44.323
10, 7057.14, -187500.02, -187500.02, -177827.48, -187500.02, -136452.72, -187500.02, -187500.02, 0.00, 0.00, 0.00, 10:48:44.327
11, 8467.89, -187500.02, -187500.02, -177605.41, -187500.02, -136225.78, -187500.02, -187500.02, 0.00, 0.00, 0.00, 10:48:44.331
12, 9635.19, -187500.02, -187500.02, -177456.38, -187500.02, -136072.52, -187500.02, -187500.02, 0.00, 0.00, 0.00, 10:48:44.334
13, 6920.84, -187500.02, -187500.02, -177803.11, -187500.02, -136424.58, -187500.02, -187500.02, 0.00, 0.00, 0.00, 10:48:44.339
14, 6815.78, -187500.02, -187500.02, -177802.31, -187500.02, -136431.95, -187500.02, -187500.02, 0.00, 0.00, 0.00, 10:48:44.344
15, 8100.18, -187500.02, -187500.02, -177593.28, -187500.02, -136220.38, -187500.02, -187500.02, 0.00, 0.00, 0.00, 10:48:44.348
16, 9702.69, -187500.02, -187500.02, -177404.27, -187500.02, -136026.56, -187500.02, -187500.02, 0.02, -0.64, 0.77, 10:48:44.351
17, 7400.15, -187500.02, -187500.02, -177726.38, -187500.02, -136349.89, -187500.02, -187500.02, 0.00, 0.00, 0.00, 10:48:44.355
18, 6734.47, -187500.02, -187500.02, -177864.41, -187500.02, -136494.31, -187500.02, -187500.02, 0.00, 0.00, 0.00, 10:48:44.358
19, 7905.41, -187500.02, -187500.02, -177688.30, -187500.02, -136317.31, -187500.02, -187500.02, 0.00, 0.00, 0.00, 10:48:44.363
20, 9640.37, -187500.02, -187500.02, -177463.38, -187500.02, -136086.00, -187500.02, -187500.02, 0.00, 0.00, 0.00, 10:48:44.367
21, 7901.50, -187500.02, -187500.02, -177691.25, -187500.02, -136313.45, -187500.02, -187500.02, 0.00, 0.00, 0.00, 10:48:44.371
22, 6542.94, -187500.02, -187500.02, -177867.36, -187500.02, -136496.05, -187500.02, -187500.02, 0.00, 0.00, 0.00, 10:48:44.375
23, 7632.94, -187500.02, -187500.02, -177674.03, -187500.02, -136304.38, -187500.02, -187500.02, 0.00, 0.00, 0.00, 10:48:44.379
24, 9354.07, -187500.02, -187500.02, -177446.22, -187500.02, -136070.64, -187500.02, -187500.02, 0.00, 0.00, 0.00, 10:48:44.383
25, 8431.37, -187500.02, -187500.02, -177619.86, -187500.02, -136240.11, -187500.02, -187500.02, 0.00, 0.00, 0.00, 10:48:44.386
26, 6569.71, -187500.02, -187500.02, -177905.84, -187500.02, -136531.09, -187500.02, -187500.02, 0.01, -0.64, 0.79, 10:48:44.390
27, 7543.80, -187500.02, -187500.02, -177737.73, -187500.02, -136366.63, -187500.02, -187500.02, 0.00, 0.00, 0.00, 10:48:44.394
28, 9072.33, -187500.02, -187500.02, -177519.98, -187500.02, -136146.50, -187500.02, -187500.02, 0.00, 0.00, 0.00, 10:48:44.400
29, 8807.10, -187500.02, -187500.02, -177557.05, -187500.02, -136179.31, -187500.02, -187500.02, 0.00, 0.00, 0.00, 10:48:44.404
30, 6536.34, -187500.02, -187500.02, -177870.27, -187500.02, -136494.72, -187500.02, -187500.02, 0.00, 0.00, 0.00, 10:48:44.407
31, 7368.77, -187500.02, -187500.02, -177749.25, -187500.02, -136376.14, -187500.02, -187500.02, 0.00, 0.00, 0.00, 10:48:44.410
32, 8726.03, -187500.02, -187500.02, -177519.41, -187500.02, -136142.38, -187500.02, -187500.02, 0.00, 0.00, 0.00, 10:48:44.415
33, 9179.57, -187500.02, -187500.02, -177477.72, -187500.02, -136094.72, -187500.02, -187500.02, 0.00, 0.00, 0.00, 10:48:44.419
34, 6728.88, -187500.02, -187500.02, -177852.02, -187500.02, -136470.30, -187500.02, -187500.02, 0.00, 0.00, 0.00, 10:48:44.422
35, 7179.47, -187500.02, -187500.02, -177766.70, -187500.02, -136390.25, -187500.02, -187500.02, 0.00, 0.00, 0.00, 10:48:44.428
36, 8473.41, -187500.02, -187500.02, -177587.89, -187500.02, -136210.83, -187500.02, -187500.02, 0.00, -0.66, 0.78, 10:48:44.431
37, 9517.51, -187500.02, -187500.02, -177486.23, -187500.02, -136105.00, -187500.02, -187500.02, 0.00, 0.00, 0.00, 10:48:44.435
38, 6976.52, -187500.02, -187500.02, -177818.56, -187500.02, -136440.55, -187500.02, -187500.02, 0.00, 0.00, 0.00, 10:48:44.439
39, 6879.82, -187500.02, -187500.02, -177822.14, -187500.02, -136451.41, -187500.02, -187500.02, 0.00, 0.00, 0.00, 10:48:44.442
40, 8093.63, -187500.02, -187500.02, -177622.69, -187500.02, -136252.61, -187500.02, -187500.02, 0.00, 0.00, 0.00, 10:48:44.447
41, 9591.58, -187500.02, -187500.02, -177413.09, -187500.02, -136040.00, -187500.02, -187500.02, 0.00, 0.00, 0.00, 10:48:44.451
42, 7488.46, -187500.02, -187500.02, -177714.27, -187500.02, -136345.13, -187500.02, -187500.02, 0.00, 0.00, 0.00, 10:48:44.456
43, 6666.21, -187500.02, -187500.02, -177817.27, -187500.02, -136456.70, -187500.02, -187500.02, 0.00, 0.00, 0.00, 10:48:44.460
44, 7821.12, -187500.02, -187500.02, -177622.25, -187500.02, -136262.94, -187500.02, -187500.02, 0.00, 0.00, 0.00, 10:48:44.463
45, 9552.11, -187500.02, -187500.02, -177405.55, -187500.02, -136042.56, -187500.02, -187500.02, 0.00, -0.64, 0.79, 10:48:44.467
46, 8093.92, -187500.02, -187500.02, -177639.16, -187500.02, -136275.77, -187500.02, -187500.02, 0.00, 0.00, 0.00, 10:48:44.471
47, 6504.45, -187500.02, -187500.02, -177841.33, -187500.02, -136483.44, -187500.02, -187500.02, 0.00, 0.00, 0.00, 10:48:44.474
48, 7606.70, -187500.02, -187500.02, -177692.03, -187500.02, -136334.17, -187500.02, -187500.02, 0.00, 0.00, 0.00, 10:48:44.479
49, 9357.09, -187500.02, -187500.02, -177479.42, -187500.02, -136119.13, -187500.02, -187500.02, 0.00, 0.00, 0.00, 10:48:44.484
50, 8656.27, -187500.02, -187500.02, -177535.75, -187500.02, -136172.72, -187500.02, -187500.02, 0.00, 0.00, 0.00, 10:48:44.487
51, 6486.57, -187500.02, -187500.02, -177857.34, -187500.02, -136499.69, -187500.02, -187500.02, 0.00, 0.00, 0.00, 10:48:44.490
52, 7337.76, -187500.02, -187500.02, -177683.53, -187500.02, -136326.77, -187500.02, -187500.02, 0.00, 0.00, 0.00, 10:48:44.495
53, 9010.43, -187500.02, -187500.02, -177492.00, -187500.02, -136131.95, -187500.02, -187500.02, 0.00, 0.00, 0.00, 10:48:44.499
54, 9154.58, -187500.02, -187500.02, -177461.63, -187500.02, -136099.59, -187500.02, -187500.02, 0.00, 0.00, 0.00, 10:48:44.502
55, 6554.83, -187500.02, -187500.02, -177827.23, -187500.02, -136468.09, -187500.02, -187500.02, 0.02, -0.63, 0.76, 10:48:44.507
56, 7142.48, -187500.02, -187500.02, -177732.13, -187500.02, -136377.63, -187500.02, -187500.02, 0.00, 0.00, 0.00, 10:48:44.512
57, 8614.63, -187500.02, -187500.02, -177529.70, -187500.02, -136174.44, -187500.02, -187500.02, 0.00, 0.00, 0.00, 10:48:44.514
58, 9508.63, -187500.02, -187500.02, -177393.31, -187500.02, -136035.78, -187500.02, -187500.02, 0.00, 0.00, 0.00, 10:48:44.519
59, 6879.82, -187500.02, -187500.02, -177796.08, -187500.02, -136440.56, -187500.02, -187500.02, 0.00, 0.00, 0.00, 10:48:44.523
60, 7051.46, -187500.02, -187500.02, -177821.02, -187500.02, -136470.41, -187500.02, -187500.02, 0.00, 0.00, 0.00, 10:48:44.527
61, 8334.43, -187500.02, -187500.02, -177622.69, -187500.02, -136272.44, -187500.02, -187500.02, 0.00, 0.00, 0.00, 10:48:44.531
62, 9678.01, -187500.02, -187500.02, -177418.13, -187500.02, -136063.53, -187500.02, -187500.02, 0.00, 0.00, 0.00, 10:48:44.534
63, 7178.67, -187500.02, -187500.02, -177735.48, -187500.02, -136381.11, -187500.02, -187500.02, 0.00, 0.00, 0.00, 10:48:44.539
64, 6776.04, -187500.02, -187500.02, -177805.89, -187500.02, -136455.63, -187500.02, -187500.02, 0.00, 0.00, 0.00, 10:48:44.543
65, 8026.15, -187500.02, -187500.02, -177642.03, -187500.02, -136291.70, -187500.02, -187500.02, 0.03, -0.63, 0.76, 10:48:44.545
66, 9668.76, -187500.02, -187500.02, -177444.44, -187500.02, -136090.38, -187500.02, -187500.02, 0.00, 0.00, 0.00, 10:48:44.550
67, 7712.78, -187500.02, -187500.02, -177724.09, -187500.02, -136367.36, -187500.02, -187500.02, 0.00, 0.00, 0.00, 10:48:44.555
68, 6670.36, -187500.02, -187500.02, -177833.84, -187500.02, -136483.03, -187500.02, -187500.02, 0.00, 0.00, 0.00, 10:48:44.559
69, 7844.72, -187500.02, -187500.02, -177640.50, -187500.02, -136290.41, -187500.02, -187500.02, 0.00, 0.00, 0.00, 10:48:44.563
70, 8977.20, -187500.02, -187500.02, -177470.30, -187500.02, -136115.23, -187500.02, -187500.02, 0.00, 0.00, 0.00, 10:48:44.568
71, 4844.85, -187500.02, -187500.02, -177933.64, -187500.02, -136576.53, -187500.02, -187500.02, 0.00, 0.00, 0.00, 10:48:44.570
72, 5809.42, -187500.02, -187500.02, -177849.22, -187500.02, -136495.03, -187500.02, -187500.02, 0.00, 0.00, 0.00, 10:48:44.574
73, 10765.87, -187500.02, -187500.02, -177268.06, -187500.02, -135910.50, -187500.02, -187500.02, 0.00, 0.00, 0.00, 10:48:44.578
74, 11268.70, -187500.02, -187500.02, -177203.27, -187500.02, -135842.81, -187500.02, -187500.02, 0.00, 0.00, 0.00, 10:48:44.583
75, 4933.28, -187500.02, -187500.02, -177996.48, -187500.02, -136637.38, -187500.02, -187500.02, 0.02, -0.63, 0.77, 10:48:44.587
76, 4455.33, -187500.02, -187500.02, -178066.50, -187500.02, -136713.95, -187500.02, -187500.02, 0.00, 0.00, 0.00, 10:48:44.591
77, 9845.97, -187500.02, -187500.02, -177439.94, -187500.02, -136086.80, -187500.02, -187500.02, 0.00, 0.00, 0.00, 10:48:44.594
78, 11468.03, -187500.02, -187500.02, -177238.55, -187500.02, -135880.16, -187500.02, -187500.02, 0.00, 0.00, 0.00, 10:48:44.600
79, 5999.66, -187500.02, -187500.02, -177829.59, -187500.02, -136471.41, -187500.02, -187500.02, 0.00, 0.00, 0.00, 10:48:44.603
80, 3465.77, -187500.02, -187500.02, -178109.69, -187500.02, -136759.33, -187500.02, -187500.02, 0.00, 0.00, 0.00, 10:48:44.606
81, 8969.60, -187500.02, -187500.02, -177495.06, -187500.02, -136146.42, -187500.02, -187500.02, 0.00, 0.00, 0.00, 10:48:44.611
82, 11585.94, -187500.02, -187500.02, -177214.89, -187500.02, -135862.75, -187500.02, -187500.02, 0.00, 0.00, 0.00, 10:48:44.615
83, 7161.70, -187500.02, -187500.02, -177705.17, -187500.02, -136354.11, -187500.02, -187500.02, 0.00, 0.00, 0.00, 10:48:44.619
84, 2828.03, -187500.02, -187500.02, -178171.66, -187500.02, -136830.27, -187500.02, -187500.02, 0.00, 0.00, 0.00, 10:48:44.623
85, 8012.30, -187500.02, -187500.02, -177570.95, -187500.02, -136235.02, -187500.02, -187500.02, 0.00, -0.65, 0.77, 10:48:44.626
86, 11443.71, -187500.02, -187500.02, -177180.50, -187500.02, -135840.63, -187500.02, -187500.02, 0.00, 0.00, 0.00, 10:48:44.630
87, 8432.29, -187500.02, -187500.02, -177543.19, -187500.02, -136201.02, -187500.02, -187500.02, 0.00, 0.00, 0.00, 10:48:44.635
88, 2602.64, -187500.02, -187500.02, -178177.73, -187500.02, -136841.53, -187500.02, -187500.02, 0.00, 0.00, 0.00, 10:48:44.639
89, 6890.10, -187500.02, -187500.02, -177696.97, -187500.02, -136363.14, -187500.02, -187500.02, 0.00, 0.00, 0.00, 10:48:44.643
90, 11124.98, -187500.02, -187500.02, -177214.48, -187500.02, -135875.05, -187500.02, -187500.02, 0.00, 0.00, 0.00, 10:48:44.647
91, 9554.72, -187500.02, -187500.02, -177384.06, -187500.02, -136041.45, -187500.02, -187500.02, 0.00, 0.00, 0.00, 10:48:44.650
92, 2944.53, -187500.02, -187500.02, -178150.33, -187500.02, -136812.59, -187500.02, -187500.02, 0.00, 0.00, 0.00, 10:48:44.654
93, 5755.80, -187500.02, -187500.02, -177832.28, -187500.02, -136500.58, -187500.02, -187500.02, 0.00, 0.00, 0.00, 10:48:44.658
94, 10680.13, -187500.02, -187500.02, -177260.55, -187500.02, -135925.89, -187500.02, -187500.02, -0.00, -0.67, 0.78, 10:48:44.661
95, 10489.29, -187500.02, -187500.02, -177294.05, -187500.02, -135952.52, -187500.02, -187500.02, 0.00, 0.00, 0.00, 10:48:44.666
96, 3685.51, -187500.02, -187500.02, -178046.86, -187500.02, -136704.34, -187500.02, -187500.02, 0.00, 0.00, 0.00, 10:48:44.671
97, 4676.10, -187500.02, -187500.02, -177941.77, -187500.02, -136604.22, -187500.02, -187500.02, 0.00, 0.00, 0.00, 10:48:44.675
98, 10116.78, -187500.02, -187500.02, -177319.02, -187500.02, -135979.56, -187500.02, -187500.02, 0.00, 0.00, 0.00, 10:48:44.678
99, 11093.04, -187500.02, -187500.02, -177184.44, -187500.02, -135839.86, -187500.02, -187500.02, 0.00, 0.00, 0.00, 10:48:44.681
100, 4825.03, -187500.02, -187500.02, -177901.23, -187500.02, -136559.28, -187500.02, -187500.02, 0.00, 0.00, 0.00, 10:48:44.686
101, 3801.07, -187500.02, -187500.02, -178040.89, -187500.02, -136709.28, -187500.02, -187500.02, 0.00, 0.00, 0.00, 10:48:44.690
102, 9448.37, -187500.02, -187500.02, -177357.53, -187500.02, -136028.67, -187500.02, -187500.02, 0.00, 0.00, 0.00, 10:48:44.695
103, 11473.75, -187500.02, -187500.02, -177133.75, -187500.02, -135799.83, -187500.02, -187500.02, 0.00, 0.00, 0.00, 10:48:44.700
104, 6184.03, -187500.02, -187500.02, -177760.22, -187500.02, -136424.97, -187500.02, -187500.02, -0.00, -0.65, 0.78, 10:48:44.704
105, 3125.53, -187500.02, -187500.02, -178079.97, -187500.02, -136752.81, -187500.02, -187500.02, 0.00, 0.00, 0.00, 10:48:44.707
106, 8712.42, -187500.02, -187500.02, -177435.89, -187500.02, -136110.03, -187500.02, -187500.02, 0.00, 0.00, 0.00, 10:48:44.709
107, 11619.91, -187500.02, -187500.02, -177119.38, -187500.02, -135789.25, -187500.02, -187500.02, 0.00, 0.00, 0.00, 10:48:44.714
108, 7608.73, -187500.02, -187500.02, -177568.23, -187500.02, -136234.09, -187500.02, -187500.02, 0.00, 0.00, 0.00, 10:48:44.718
109, 2867.08, -187500.02, -187500.02, -178108.95, -187500.02, -136779.13, -187500.02, -187500.02, 0.00, 0.00, 0.00, 10:48:44.722
110, 7874.81, -187500.02, -187500.02, -177554.86, -187500.02, -136228.16, -187500.02, -187500.02, 0.00, 0.00, 0.00, 10:48:44.727
111, 11549.33, -187500.02, -187500.02, -177156.72, -187500.02, -135823.88, -187500.02, -187500.02, 0.00, 0.00, 0.00, 10:48:44.730
112, 8929.50, -187500.02, -187500.02, -177428.05, -187500.02, -136088.23, -187500.02, -187500.02, 0.00, 0.00, 0.00, 10:48:44.734
113, 2957.31, -187500.02, -187500.02, -178105.11, -187500.02, -136770.25, -187500.02, -187500.02, 0.00, 0.00, 0.00, 10:48:44.738
114, 6822.83, -187500.02, -187500.02, -177646.50, -187500.02, -136317.97, -187500.02, -187500.02, 0.01, -0.65, 0.76, 10:48:44.742
115, 11205.33, -187500.02, -187500.02, -177136.94, -187500.02, -135803.77, -187500.02, -187500.02, 0.00, 0.00, 0.00, 10:48:44.746
116, 10071.00, -187500.02, -187500.02, -177287.97, -187500.02, -135950.81, -187500.02, -187500.02, 0.00, 0.00, 0.00, 10:48:44.750
117, 3401.91, -187500.02, -187500.02, -178023.84, -187500.02, -136689.72, -187500.02, -187500.02, 0.00, 0.00, 0.00, 10:48:44.755
118, 5468.89, -187500.02, -187500.02, -177809.81, -187500.02, -136481.89, -187500.02, -187500.02, 0.00, 0.00, 0.00, 10:48:44.759
119, 10266.74, -187500.02, -187500.02, -177269.58, -187500.02, -135938.41, -187500.02, -187500.02, 0.00, 0.00, 0.00, 10:48:44.762
120, 10753.98, -187500.02, -187500.02, -177183.36, -187500.02, -135847.73, -187500.02, -187500.02, 0.00, 0.00, 0.00, 10:48:44.766
121, 4739.49, -187500.02, -187500.02, -177879.52, -187500.02, -136545.75, -187500.02, -187500.02, 0.00, 0.00, 0.00, 10:48:44.770
122, 4483.16, -187500.02, -187500.02, -177934.03, -187500.02, -136606.89, -187500.02, -187500.02, 0.00, 0.00, 0.00, 10:48:44.774
123, 9565.09, -187500.02, -187500.02, -177378.05, -187500.02, -136049.78, -187500.02, -187500.02, 0.00, 0.00, 0.00, 10:48:44.778
124, 11195.09, -187500.02, -187500.02, -177192.42, -187500.02, -135857.47, -187500.02, -187500.02, 0.02, -0.65, 0.76, 10:48:44.783
125, 5983.54, -187500.02, -187500.02, -177778.42, -187500.02, -136440.91, -187500.02, -187500.02, 0.00, 0.00, 0.00, 10:48:44.787
126, 3745.64, -187500.02, -187500.02, -178012.69, -187500.02, -136677.67, -187500.02, -187500.02, 0.00, 0.00, 0.00, 10:48:44.790
127, 8864.88, -187500.02, -187500.02, -177449.58, -187500.02, -136113.94, -187500.02, -187500.02, 0.00, 0.00, 0.00, 10:48:44.794
128, 11331.19, -187500.02, -187500.02, -177164.55, -187500.02, -135822.73, -187500.02, -187500.02, 0.00, 0.00, 0.00, 10:48:44.798
129, 7290.89, -187500.02, -187500.02, -177625.73, -187500.02, -136280.91, -187500.02, -187500.02, 0.00, 0.00, 0.00, 10:48:44.803
130, 3299.03, -187500.02, -187500.02, -178090.27, -187500.02, -136753.56, -187500.02, -187500.02, 0.00, 0.00, 0.00, 10:48:44.806
131, 7979.04, -187500.02, -187500.02, -177555.30, -187500.02, -136223.39, -187500.02, -187500.02, 0.00, 0.00, 0.00, 10:48:44.812
132, 11174.78, -187500.02, -187500.02, -177182.83, -187500.02, -135848.58, -187500.02, -187500.02, 0.00, 0.00, 0.00, 10:48:44.814
133, 8487.78, -187500.02, -187500.02, -177459.03, -187500.02, -136123.61, -187500.02, -187500.02, 0.00, 0.00, 0.00, 10:48:44.819
134, 3094.98, -187500.02, -187500.02, -178083.38, -187500.02, -136754.16, -187500.02, -187500.02, 0.01, -0.65, 0.78, 10:48:44.822
135, 6884.34, -187500.02, -187500.02, -177637.78, -187500.02, -136311.91, -187500.02, -187500.02, 0.00, 0.00, 0.00, 10:48:44.826
136, 10757.29, -187500.02, -187500.02, -177182.88, -187500.02, -135852.53, -187500.02, -187500.02, 0.00, 0.00, 0.00, 10:48:44.831
137, 9525.20, -187500.02, -187500.02, -177333.70, -187500.02, -136000.77, -187500.02, -187500.02, 0.00, 0.00, 0.00, 10:48:44.836
138, 3362.28, -187500.02, -187500.02, -178063.92, -187500.02, -136733.34, -187500.02, -187500.02, 0.00, 0.00, 0.00, 10:48:44.838
139, 5856.29, -187500.02, -187500.02, -177811.97, -187500.02, -136488.44, -187500.02, -187500.02, 0.00, 0.00, 0.00, 10:48:44.842
140, 10310.41, -187500.02, -187500.02, -177290.00, -187500.02, -135964.56, -187500.02, -187500.02, 0.00, 0.00, 0.00, 10:48:44.845
141, 10334.80, -187500.02, -187500.02, -177274.63, -187500.02, -135944.33, -187500.02, -187500.02, 0.00, 0.00, 0.00, 10:48:44.850
142, 3976.91, -187500.02, -187500.02, -177968.38, -187500.02, -136639.77, -187500.02, -187500.02, 0.00, 0.00, 0.00, 10:48:44.854
143, 4739.96, -187500.02, -187500.02, -177870.55, -187500.02, -136547.39, -187500.02, -187500.02, -0.00, -0.66, 0.78, 10:48:44.859
144, 9676.43, -187500.02, -187500.02, -177278.36, -187500.02, -135952.30, -187500.02, -187500.02, 0.00, 0.00, 0.00, 10:48:44.863
145, 10848.26, -187500.02, -187500.02, -177146.55, -187500.02, -135815.36, -187500.02, -187500.02, 0.00, 0.00, 0.00, 10:48:44.866
146, 5062.33, -187500.02, -187500.02, -177844.67, -187500.02, -136513.31, -187500.02, -187500.02, 0.00, 0.00, 0.00, 10:48:44.869
147, 3951.03, -187500.02, -187500.02, -177987.06, -187500.02, -136663.13, -187500.02, -187500.02, 0.00, 0.00, 0.00, 10:48:44.874
148, 9099.28, -187500.02, -187500.02, -177378.28, -187500.02, -136054.70, -187500.02, -187500.02, 0.00, 0.00, 0.00, 10:48:44.878
149, 11126.16, -187500.02, -187500.02, -177141.88, -187500.02, -135813.03, -187500.02, -187500.02, 0.00, 0.00, 0.00, 10:48:44.882
150, 6222.08, -187500.02, -187500.02, -177688.58, -187500.02, -136357.23, -187500.02, -187500.02, 0.00, 0.00, 0.00, 10:48:44.886
151, 3302.60, -187500.02, -187500.02, -178017.63, -187500.02, -136691.44, -187500.02, -187500.02, 0.00, 0.00, 0.00, 10:48:44.891
152, 8425.36, -187500.02, -187500.02, -177457.28, -187500.02, -136128.84, -187500.02, -187500.02, 0.00, 0.00, 0.00, 10:48:44.894
153, 11175.67, -187500.02, -187500.02, -177118.77, -187500.02, -135781.86, -187500.02, -187500.02, -0.00, -0.66, 0.77, 10:48:44.897
154, 7524.20, -187500.02, -187500.02, -177554.78, -187500.02, -136216.80, -187500.02, -187500.02, 0.00, 0.00, 0.00, 10:48:44.902
155, 3064.36, -187500.02, -187500.02, -178074.27, -187500.02, -136743.63, -187500.02, -187500.02, 0.00, 0.00, 0.00, 10:48:44.907
156, 7657.28, -187500.02, -187500.02, -177553.13, -187500.02, -136225.47, -187500.02, -187500.02, 0.00, 0.00, 0.00, 10:48:44.910
157, 11070.51, -187500.02, -187500.02, -177149.80, -187500.02, -135817.80, -187500.02, -187500.02, 0.00, 0.00, 0.00, 10:48:44.914
158, 8689.22, -187500.02, -187500.02, -177405.95, -187500.02, -136072.25, -187500.02, -187500.02, 0.00, 0.00, 0.00, 10:48:44.918
159, 3119.03, -187500.02, -187500.02, -178043.47, -187500.02, -136713.13, -187500.02, -187500.02, 0.00, 0.00, 0.00, 10:48:44.922
160, 6792.16, -187500.02, -187500.02, -177625.50, -187500.02, -136299.95, -187500.02, -187500.02, 0.00, 0.00, 0.00, 10:48:44.926
161, 10854.48, -187500.02, -187500.02, -177133.81, -187500.02, -135805.39, -187500.02, -187500.02, 0.00, 0.00, 0.00, 10:48:44.930
162, 9872.07, -187500.02, -187500.02, -177313.72, -187500.02, -135980.13, -187500.02, -187500.02, 0.00, 0.00, 0.00, 10:48:44.935
163, 3638.51, -187500.02, -187500.02, -178002.06, -187500.02, -136671.69, -187500.02, -187500.02, 0.01, -0.65, 0.76, 10:48:44.938
164, 5941.50, -187500.02, -187500.02, -177741.16, -187500.02, -136417.11, -187500.02, -187500.02, 0.00, 0.00, 0.00, 10:48:44.945
165, 10558.09, -187500.02, -187500.02, -177228.05, -187500.02, -135900.20, -187500.02, -187500.02, 0.00, 0.00, 0.00, 10:48:44.947
166, 10661.85, -187500.02, -187500.02, -177191.39, -187500.02, -135860.31, -187500.02, -187500.02, 0.00, 0.00, 0.00, 10:48:44.951
167, 4512.33, -187500.02, -187500.02, -177933.53, -187500.02, -136604.42, -187500.02, -187500.02, 0.00, 0.00, 0.00, 10:48:44.953
168, 5057.73, -187500.02, -187500.02, -177865.28, -187500.02, -136540.28, -187500.02, -187500.02, 0.00, 0.00, 0.00, 10:48:44.957
169, 10070.42, -187500.02, -187500.02, -177282.56, -187500.02, -135951.48, -187500.02, -187500.02, 0.00, 0.00, 0.00, 10:48:44.963
170, 11244.69, -187500.02, -187500.02, -177132.06, -187500.02, -135794.27, -187500.02, -187500.02, 0.00, 0.00, 0.00, 10:48:44.967
171, 5595.47, -187500.02, -187500.02, -177788.42, -187500.02, -136450.27, -187500.02, -187500.02, 0.00, 0.00, 0.00, 10:48:44.970
172, 4241.91, -187500.02, -187500.02, -177937.11, -187500.02, -136604.30, -187500.02, -187500.02, 0.00, 0.00, 0.00, 10:48:44.973
173, 9413.84, -187500.02, -187500.02, -177318.14, -187500.02, -135986.42, -187500.02, -187500.02, 0.03, -0.61, 0.78, 10:48:44.978
174, 11530.48, -187500.02, -187500.02, -177091.44, -187500.02, -135754.52, -187500.02, -187500.02, 0.00, 0.00, 0.00, 10:48:44.981
175, 6828.95, -187500.02, -187500.02, -177609.44, -187500.02, -136268.52, -187500.02, -187500.02, 0.00, 0.00, 0.00, 10:48:44.985
176, 3632.29, -187500.02, -187500.02, -177966.95, -187500.02, -136630.23, -187500.02, -187500.02, 0.00, 0.00, 0.00, 10:48:44.990
177, 8664.12, -187500.02, -187500.02, -177404.27, -187500.02, -136068.41, -187500.02, -187500.02, 0.00, 0.00, 0.00, 10:48:44.994
178, 11564.81, -187500.02, -187500.02, -177081.52, -187500.02, -135740.70, -187500.02, -187500.02, 0.00, 0.00, 0.00, 10:48:44.999
179, 8175.42, -187500.02, -187500.02, -177469.64, -187500.02, -136125.50, -187500.02, -187500.02, 0.00, 0.00, 0.00, 10:48:45.001
180, 3376.30, -187500.02, -187500.02, -178013.52, -187500.02, -136675.92, -187500.02, -187500.02, 0.00, 0.00, 0.00, 10:48:45.006
181, 7715.46, -187500.02, -187500.02, -177500.53, -187500.02, -136168.64, -187500.02, -187500.02, 0.00, 0.00, 0.00, 10:48:45.010
182, 11319.55, -187500.02, -187500.02, -177092.17, -187500.02, -135757.06, -187500.02, -187500.02, 0.00, 0.00, 0.00, 10:48:45.014
183, 9315.11, -187500.02, -187500.02, -177314.91, -187500.02, -135974.70, -187500.02, -187500.02, 0.01, -0.61, 0.78, 10:48:45.017
184, 3446.15, -187500.02, -187500.02, -177986.36, -187500.02, -136650.89, -187500.02, -187500.02, 0.00, 0.00, 0.00, 10:48:45.021
185, 6695.58, -187500.02, -187500.02, -177629.58, -187500.02, -136298.50, -187500.02, -187500.02, 0.00, 0.00, 0.00, 10:48:45.025
186, 10928.73, -187500.02, -187500.02, -177155.27, -187500.02, -135818.56, -187500.02, -187500.02, 0.00, 0.00, 0.00, 10:48:45.030
187, 10281.94, -187500.02, -187500.02, -177217.05, -187500.02, -135876.86, -187500.02, -187500.02, 0.00, 0.00, 0.00, 10:48:45.035
188, 3961.96, -187500.02, -187500.02, -177945.50, -187500.02, -136608.98, -187500.02, -187500.02, 0.00, 0.00, 0.00, 10:48:45.038
189, 5591.09, -187500.02, -187500.02, -177760.67, -187500.02, -136431.05, -187500.02, -187500.02, 0.00, 0.00, 0.00, 10:48:45.041
190, 10387.82, -187500.02, -187500.02, -177244.34, -187500.02, -135914.31, -187500.02, -187500.02, 0.00, 0.00, 0.00, 10:48:45.046
191, 10970.97, -187500.02, -187500.02, -177200.83, -187500.02, -135866.33, -187500.02, -187500.02, 0.00, 0.00, 0.00, 10:48:45.049
192, 4778.33, -187500.02, -187500.02, -177871.08, -187500.02, -136537.48, -187500.02, -187500.02, 0.00, -0.65, 0.78, 10:48:45.053
193, 4514.94, -187500.02, -187500.02, -177857.50, -187500.02, -136529.19, -187500.02, -187500.02, 0.00, 0.00, 0.00, 10:48:45.057
194, 9671.58, -187500.02, -187500.02, -177280.98, -187500.02, -135947.53, -187500.02, -187500.02, 0.00, 0.00, 0.00, 10:48:45.062
195, 11297.02, -187500.02, -187500.02, -177107.73, -187500.02, -135768.98, -187500.02, -187500.02, 0.00, 0.00, 0.00, 10:48:45.067
196, 5938.19, -187500.02, -187500.02, -177728.81, -187500.02, -136390.77, -187500.02, -187500.02, 0.00, 0.00, 0.00, 10:48:45.069
197, 3745.50, -187500.02, -187500.02, -177950.25, -187500.02, -136620.81, -187500.02, -187500.02, 0.00, 0.00, 0.00, 10:48:45.074
198, 8926.79, -187500.02, -187500.02, -177337.28, -187500.02, -136006.50, -187500.02, -187500.02, 0.00, 0.00, 0.00, 10:48:45.077
199, 11430.68, -187500.02, -187500.02, -177075.00, -187500.02, -135737.72, -187500.02, -187500.02, 0.00, 0.00, 0.00, 10:48:45.082
200, 7204.73, -187500.02, -187500.02, -177569.73, -187500.02, -136230.81, -187500.02, -187500.02, 0.00, 0.00, 0.00, 10:48:45.085
201, 3263.76, -187500.02, -187500.02, -177979.38, -187500.02, -136646.17, -187500.02, -187500.02, 0.00, 0.00, 0.00, 10:48:45.090
202, 8113.08, -187500.02, -187500.02, -177404.20, -187500.02, -136073.53, -187500.02, -187500.02, 0.00, -0.67, 0.76, 10:48:45.094
203, 11352.90, -187500.02, -187500.02, -177067.50, -187500.02, -135734.56, -187500.02, -187500.02, 0.00, 0.00, 0.00, 10:48:45.098
204, 8477.97, -187500.02, -187500.02, -177417.80, -187500.02, -136083.05, -187500.02, -187500.02, 0.00, 0.00, 0.00, 10:48:45.102
205, 3238.83, -187500.02, -187500.02, -178027.44, -187500.02, -136696.80, -187500.02, -187500.02, 0.00, 0.00, 0.00, 10:48:45.105
206, 7236.18, -187500.02, -187500.02, -177510.86, -187500.02, -136182.41, -187500.02, -187500.02, 0.00, 0.00, 0.00, 10:48:45.110
207, 11113.42, -187500.02, -187500.02, -177076.02, -187500.02, -135741.83, -187500.02, -187500.02, 0.00, 0.00, 0.00, 10:48:45.114
208, 9562.59, -187500.02, -187500.02, -177247.52, -187500.02, -135909.44, -187500.02, -187500.02, 0.00, 0.00, 0.00, 10:48:45.119
209, 3539.31, -187500.02, -187500.02, -177958.02, -187500.02, -136623.89, -187500.02, -187500.02, 0.00, 0.00, 0.00, 10:48:45.121
210, 6384.95, -187500.02, -187500.02, -177659.75, -187500.02, -136331.31, -187500.02, -187500.02, 0.00, 0.00, 0.00, 10:48:45.126
211, 10783.91, -187500.02, -187500.02, -177134.44, -187500.02, -135804.25, -187500.02, -187500.02, 0.00, 0.00, 0.00, 10:48:45.130
212, 10562.14, -187500.02, -187500.02, -177155.00, -187500.02, -135818.89, -187500.02, -187500.02, 0.00, -0.66, 0.76, 10:48:45.133
213, 4337.58, -187500.02, -187500.02, -177878.64, -187500.02, -136544.28, -187500.02, -187500.02, 0.00, 0.00, 0.00, 10:48:45.137
214, 5481.50, -187500.02, -187500.02, -177746.98, -187500.02, -136419.69, -187500.02, -187500.02, 0.00, 0.00, 0.00, 10:48:45.142
215, 10368.10, -187500.02, -187500.02, -177186.19, -187500.02, -135856.20, -187500.02, -187500.02, 0.00, 0.00, 0.00, 10:48:45.147
216, 11245.56, -187500.02, -187500.02, -177079.52, -187500.02, -135744.28, -187500.02, -187500.02, 0.00, 0.00, 0.00, 10:48:45.149
217, 5374.57, -187500.02, -187500.02, -177748.94, -187500.02, -136413.05, -187500.02, -187500.02, 0.00, 0.00, 0.00, 10:48:45.154
218, 4595.72, -187500.02, -187500.02, -177824.92, -187500.02, -136495.45, -187500.02, -187500.02, 0.00, 0.00, 0.00, 10:48:45.158
219, 9730.23, -187500.02, -187500.02, -177243.36, -187500.02, -135913.27, -187500.02, -187500.02, 0.00, 0.00, 0.00, 10:48:45.163
220, 11597.07, -187500.02, -187500.02, -177035.20, -187500.02, -135698.69, -187500.02, -187500.02, 0.00, 0.00, 0.00, 10:48:45.166
221, 6713.23, -187500.02, -187500.02, -177621.34, -187500.02, -136280.58, -187500.02, -187500.02, 0.00, 0.00, 0.00, 10:48:45.170
222, 4010.86, -187500.02, -187500.02, -177910.06, -187500.02, -136573.17, -187500.02, -187500.02, 0.01, -0.64, 0.74, 10:48:45.175
223, 9015.33, -187500.02, -187500.02, -177318.13, -187500.02, -135981.39, -187500.02, -187500.02, 0.00, 0.00, 0.00, 10:48:45.179
224, 11684.35, -187500.02, -187500.02, -177025.66, -187500.02, -135682.53, -187500.02, -187500.02, 0.00, 0.00, 0.00, 10:48:45.183
225, 7961.02, -187500.02, -187500.02, -177459.97, -187500.02, -136110.52, -187500.02, -187500.02, 0.00, 0.00, 0.00, 10:48:45.185
226, 3599.57, -187500.02, -187500.02, -177928.70, -187500.02, -136584.39, -187500.02, -187500.02, 0.00, 0.00, 0.00, 10:48:45.190
227, 8073.94, -187500.02, -187500.02, -177444.81, -187500.02, -136103.50, -187500.02, -187500.02, 0.00, 0.00, 0.00, 10:48:45.194
228, 11439.85, -187500.02, -187500.02, -177101.78, -187500.02, -135755.69, -187500.02, -187500.02, 0.00, 0.00, 0.00, 10:48:45.197
229, 9245.44, -187500.02, -187500.02, -177348.28, -187500.02, -135998.77, -187500.02, -187500.02, 0.00, 0.00, 0.00, 10:48:45.202
230, 3731.20, -187500.02, -187500.02, -177951.66, -187500.02, -136606.55, -187500.02, -187500.02, 0.00, 0.00, 0.00, 10:48:45.206
231, 7007.90, -187500.02, -187500.02, -177565.31, -187500.02, -136222.75, -187500.02, -187500.02, 0.03, -0.64, 0.74, 10:48:45.208
232, 10854.43, -187500.02, -187500.02, -177114.55, -187500.02, -135766.75, -187500.02, -187500.02, 0.00, 0.00, 0.00, 10:48:45.214
233, 10373.24, -187500.02, -187500.02, -177174.09, -187500.02, -135822.97, -187500.02, -187500.02, 0.00, 0.00, 0.00, 10:48:45.218
234, 4580.86, -187500.02, -187500.02, -177854.08, -187500.02, -136506.81, -187500.02, -187500.02, 0.00, 0.00, 0.00, 10:48:45.222
235, 5964.03, -187500.02, -187500.02, -177716.97, -187500.02, -136374.22, -187500.02, -187500.02, 0.00, 0.00, 0.00, 10:48:45.225
236, 10028.42, -187500.02, -187500.02, -177219.75, -187500.02, -135874.17, -187500.02, -187500.02, 0.00, 0.00, 0.00, 10:48:45.230
237, 11081.86, -187500.02, -187500.02, -177089.31, -187500.02, -135738.81, -187500.02, -187500.02, 0.00, 0.00, 0.00, 10:48:45.234
238, 6181.51, -187500.02, -187500.02, -177690.27, -187500.02, -136340.09, -187500.02, -187500.02, 0.00, 0.00, 0.00, 10:48:45.236
239, 5034.95, -187500.02, -187500.02, -177825.41, -187500.02, -136481.52, -187500.02, -187500.02, 0.00, 0.00, 0.00, 10:48:45.242
240, 8763.92, -187500.02, -187500.02, -177352.91, -187500.02, -136006.78, -187500.02, -187500.02, 0.00, 0.00, 0.00, 10:48:45.246
241, 10835.48, -187500.02, -187500.02, -177134.53, -187500.02, -135780.20, -187500.02, -187500.02, 0.01, -0.67, 0.75, 10:48:45.250
242, 7252.25, -187500.02, -187500.02, -177578.03, -187500.02, -136219.11, -187500.02, -187500.02, 0.00, 0.00, 0.00, 10:48:45.253
243, 4392.97, -187500.02, -187500.02, -177907.34, -187500.02, -136554.56, -187500.02, -187500.02, 0.00, 0.00, 0.00, 10:48:45.257
244, 7884.20, -187500.02, -187500.02, -177492.31, -187500.02, -136140.63, -187500.02, -187500.02, 0.00, 0.00, 0.00, 10:48:45.261
245, 10552.01, -187500.02, -187500.02, -177155.50, -187500.02, -135797.89, -187500.02, -187500.02, 0.00, 0.00, 0.00, 10:48:45.265
246, 8798.54, -187500.02, -187500.02, -177369.94, -187500.02, -136010.22, -187500.02, -187500.02, 0.00, 0.00, 0.00, 10:48:45.270
247, 4349.65, -187500.02, -187500.02, -177908.59, -187500.02, -136555.20, -187500.02, -187500.02, 0.00, 0.00, 0.00, 10:48:45.273
248, 5358.88, -187500.02, -187500.02, -177754.80, -187500.02, -136406.52, -187500.02, -187500.02, 0.00, 0.00, 0.00, 10:48:45.279
249, 7355.71, -187500.02, -187500.02, -177522.33, -187500.02, -136168.20, -187500.02, -187500.02, 0.00, 0.00, 0.00, 10:48:45.282
250, 8630.19, -187500.02, -187500.02, -177369.00, -187500.02, -136006.25, -187500.02, -187500.02, 0.00, 0.00, 0.00, 10:48:45.286
251, 5316.65, -187500.02, -187500.02, -177768.77, -187500.02, -136406.91, -187500.02, -187500.02, -0.04, -0.66, 0.82, 10:48:45.288
252, 5284.15, -187500.02, -187500.02, -177758.02, -187500.02, -136401.38, -187500.02, -187500.02, 0.00, 0.00, 0.00, 10:48:45.292
253, 7024.62, -187500.02, -187500.02, -177513.34, -187500.02, -136155.31, -187500.02, -187500.02, 0.00, 0.00, 0.00, 10:48:45.296
254, 8810.05, -187500.02, -187500.02, -177280.52, -187500.02, -135917.63, -187500.02, -187500.02, 0.00, 0.00, 0.00, 10:48:45.301
255, 6552.50, -187500.02, -187500.02, -177599.95, -187500.02, -136234.97, -187500.02, -187500.02, 0.00, 0.00, 0.00, 10:48:45.306
0, 6186.09, -187500.02, -187500.02, -177632.48, -187500.02, -136271.27, -187500.02, -187500.02, 0.00, 0.00, 0.00, 10:48:45.310
1, 7961.83, -187500.02, -187500.02, -177444.39, -187500.02, -136082.27, -187500.02, -187500.02, 0.00, 0.00, 0.00, 10:48:45.312
2, 9693.62, -187500.02, -187500.02, -177214.50, -187500.02, -135846.95, -187500.02, -187500.02, 0.00, 0.00, 0.00, 10:48:45.317
3, 7013.22, -187500.02, -187500.02, -177552.03, -187500.02, -136185.23, -187500.02, -187500.02, 0.00, 0.00, 0.00, 10:48:45.323
4, 5921.27, -187500.02, -187500.02, -177754.83, -187500.02, -136393.78, -187500.02, -187500.02, 0.00, 0.00, 0.00, 10:48:45.325
5, 8717.05, -187500.02, -187500.02, -177389.73, -187500.02, -136027.58, -187500.02, -187500.02, -0.02, -0.62, 0.83, 10:48:45.330
6, 10708.83, -187500.02, -187500.02, -177142.73, -187500.02, -135773.72, -187500.02, -187500.02, 0.00, 0.00, 0.00, 10:48:45.334
7, 6939.75, -187500.02, -187500.02, -177560.69, -187500.02, -136187.13, -187500.02, -187500.02, 0.00, 0.00, 0.00, 10:48:45.338
8, 4818.86, -187500.02, -187500.02, -177771.39, -187500.02, -136402.50, -187500.02, -187500.02, 0.00, 0.00, 0.00, 10:48:45.341
9, 8192.29, -187500.02, -187500.02, -177369.17, -187500.02, -135999.67, -187500.02, -187500.02, 0.00, 0.00, 0.00, 10:48:45.345
10, 10508.92, -187500.02, -187500.02, -177102.14, -187500.02, -135728.55, -187500.02, -187500.02, 0.00, 0.00, 0.00, 10:48:45.349
11, 7766.25, -187500.02, -187500.02, -177427.58, -187500.02, -136052.92, -187500.02, -187500.02, 0.00, 0.00, 0.00, 10:48:45.353
12, 4670.84, -187500.02, -187500.02, -177839.56, -187500.02, -136468.84, -187500.02, -187500.02, 0.00, 0.00, 0.00, 10:48:45.358
13, 7776.13, -187500.02, -187500.02, -177479.17, -187500.02, -136110.98, -187500.02, -187500.02, 0.00, 0.00, 0.00, 10:48:45.362
14, 10308.51, -187500.02, -187500.02, -177167.05, -187500.02, -135795.98, -187500.02, -187500.02, 0.00, 0.00, 0.00, 10:48:45.365
15, 8621.29, -187500.02, -187500.02, -177369.28, -187500.02, -135996.75, -187500.02, -187500.02, -0.01, -0.60, 0.80, 10:48:45.368
16, 4627.84, -187500.02, -187500.02, -177857.70, -187500.02, -136489.78, -187500.02, -187500.02, 0.00, 0.00, 0.00, 10:48:45.373
17, 7197.73, -187500.02, -187500.02, -177526.84, -187500.02, -136161.48, -187500.02, -187500.02, 0.00, 0.00, 0.00, 10:48:45.377
18, 10022.34, -187500.02, -187500.02, -177214.38, -187500.02, -135845.20, -187500.02, -187500.02, 0.00, 0.00, 0.00, 10:48:45.380
19, 9412.63, -187500.02, -187500.02, -177319.27, -187500.02, -135946.56, -187500.02, -187500.02, 0.00, 0.00, 0.00, 10:48:45.386
20, 4843.27, -187500.02, -187500.02, -177821.42, -187500.02, -136453.64, -187500.02, -187500.02, 0.00, 0.00, 0.00, 10:48:45.390
21, 6567.59, -187500.02, -187500.02, -177597.39, -187500.02, -136235.69, -187500.02, -187500.02, 0.00, 0.00, 0.00, 10:48:45.392
22, 9572.49, -187500.02, -187500.02, -177250.20, -187500.02, -135885.73, -187500.02, -187500.02, 0.00, 0.00, 0.00, 10:48:45.397
23, 9951.02, -187500.02, -187500.02, -177234.42, -187500.02, -135864.42, -187500.02, -187500.02, 0.00, 0.00, 0.00, 10:48:45.401
24, 5420.32, -187500.02, -187500.02, -177796.25, -187500.02, -136429.03, -187500.02, -187500.02, 0.01, -0.61, 0.79, 10:48:45.405
25, 6044.34, -187500.02, -187500.02, -177724.06, -187500.02, -136362.78, -187500.02, -187500.02, 0.00, 0.00, 0.00, 10:48:45.408
26, 9221.35, -187500.02, -187500.02, -177332.56, -187500.02, -135965.91, -187500.02, -187500.02, 0.00, 0.00, 0.00, 10:48:45.413
27, 10337.97, -187500.02, -187500.02, -177205.92, -187500.02, -135832.89, -187500.02, -187500.02, 0.00, 0.00, 0.00, 10:48:45.418
28, 6059.80, -187500.02, -187500.02, -177696.63, -187500.02, -136324.77, -187500.02, -187500.02, 0.00, 0.00, 0.00, 10:48:45.421
29, 5365.47, -187500.02, -187500.02, -177750.86, -187500.02, -136386.31, -187500.02, -187500.02, 0.00, 0.00, 0.00, 10:48:45.425
30, 8716.64, -187500.02, -187500.02, -177365.22, -187500.02, -136000.72, -187500.02, -187500.02, 0.00, 0.00, 0.00, 10:48:45.429
31, 10453.87, -187500.02, -187500.02, -177159.30, -187500.02, -135790.80, -187500.02, -187500.02, 0.00, 0.00, 0.00, 10:48:45.433
32, 6844.26, -187500.02, -187500.02, -177591.52, -187500.02, -136221.86, -187500.02, -187500.02, 0.00, 0.00, 0.00, 10:48:45.437
33, 4820.06, -187500.02, -187500.02, -177827.48, -187500.02, -136466.17, -187500.02, -187500.02, 0.00, 0.00, 0.00, 10:48:45.441
34, 8174.61, -187500.02, -187500.02, -177430.36, -187500.02, -136071.77, -187500.02, -187500.02, 0.01, -0.62, 0.79, 10:48:45.446
35, 10370.72, -187500.02, -187500.02, -177149.58, -187500.02, -135786.19, -187500.02, -187500.02, 0.00, 0.00, 0.00, 10:48:45.448
36, 7759.88, -187500.02, -187500.02, -177456.84, -187500.02, -136087.83, -187500.02, -187500.02, 0.00, 0.00, 0.00, 10:48:45.453
37, 4474.06, -187500.02, -187500.02, -177878.66, -187500.02, -136513.98, -187500.02, -187500.02, 0.00, 0.00, 0.00, 10:48:45.457
38, 7510.57, -187500.02, -187500.02, -177496.47, -187500.02, -136132.20, -187500.02, -187500.02, 0.00, 0.00, 0.00, 10:48:45.461
39, 10148.05, -187500.02, -187500.02, -177190.00, -187500.02, -135819.30, -187500.02, -187500.02, 0.00, 0.00, 0.00, 10:48:45.464
40, 8704.01, -187500.02, -187500.02, -177382.34, -187500.02, -136006.14, -187500.02, -187500.02, 0.00, 0.00, 0.00, 10:48:45.468
41, 4375.62, -187500.02, -187500.02, -177852.88, -187500.02, -136479.20, -187500.02, -187500.02, 0.00, 0.00, 0.00, 10:48:45.475
42, 6801.64, -187500.02, -187500.02, -177561.83, -187500.02, -136191.14, -187500.02, -187500.02, 0.00, 0.00, 0.00, 10:48:45.477
43, 9721.44, -187500.02, -187500.02, -177209.47, -187500.02, -135835.09, -187500.02, -187500.02, 0.00, 0.00, 0.00, 10:48:45.481
44, 9388.29, -187500.02, -187500.02, -177256.72, -187500.02, -135877.80, -187500.02, -187500.02, -0.01, -0.65, 0.78, 10:48:45.485
45, 4614.90, -187500.02, -187500.02, -177830.03, -187500.02, -136453.34, -187500.02, -187500.02, 0.00, 0.00, 0.00, 10:48:45.488
46, 6070.42, -187500.02, -187500.02, -177623.73, -187500.02, -136250.27, -187500.02, -187500.02, 0.00, 0.00, 0.00, 10:48:45.493
47, 9304.90, -187500.02, -187500.02, -177241.64, -187500.02, -135863.83, -187500.02, -187500.02, 0.00, 0.00, 0.00, 10:48:45.497
48, 9838.48, -187500.02, -187500.02, -177199.55, -187500.02, -135815.25, -187500.02, -187500.02, 0.00, 0.00, 0.00, 10:48:45.500
49, 4959.43, -187500.02, -187500.02, -177790.03, -187500.02, -136409.30, -187500.02, -187500.02, 0.00, 0.00, 0.00, 10:48:45.504
50, 5352.21, -187500.02, -187500.02, -177722.22, -187500.02, -136349.22, -187500.02, -187500.02, 0.00, 0.00, 0.00, 10:48:45.509
51, 8908.65, -187500.02, -187500.02, -177288.88, -187500.02, -135913.72, -187500.02, -187500.02, 0.00, 0.00, 0.00, 10:48:45.512
52, 10313.27, -187500.02, -187500.02, -177130.80, -187500.02, -135747.33, -187500.02, -187500.02, 0.00, 0.00, 0.00, 10:48:45.517
53, 6210.83, -187500.02, -187500.02, -177580.22, -187500.02, -136193.94, -187500.02, -187500.02, 0.00, 0.00, 0.00, 10:48:45.521
54, 5026.93, -187500.02, -187500.02, -177715.00, -187500.02, -136334.95, -187500.02, -187500.02, -0.01, -0.67, 0.77, 10:48:45.525
55, 8283.42, -187500.02, -187500.02, -177317.72, -187500.02, -135936.88, -187500.02, -187500.02, 0.00, 0.00, 0.00, 10:48:45.528
56, 10105.60, -187500.02, -187500.02, -177084.70, -187500.02, -135697.38, -187500.02, -187500.02, 0.00, 0.00, 0.00, 10:48:45.532
57, 6712.41, -187500.02, -187500.02, -177495.44, -187500.02, -136107.13, -187500.02, -187500.02, 0.00, 0.00, 0.00, 10:48:45.537
58, 4346.32, -187500.02, -187500.02, -177788.30, -187500.02, -136406.34, -187500.02, -187500.02, 0.00, 0.00, 0.00, 10:48:45.541
59, 7661.84, -187500.02, -187500.02, -177388.95, -187500.02, -136008.48, -187500.02, -187500.02, 0.00, 0.00, 0.00, 10:48:45.545
60, 9958.57, -187500.02, -187500.02, -177119.95, -187500.02, -135734.36, -187500.02, -187500.02, 0.00, 0.00, 0.00, 10:48:45.549
61, 7553.88, -187500.02, -187500.02, -177407.33, -187500.02, -136018.91, -187500.02, -187500.02, 0.00, 0.00, 0.00, 10:48:45.553
62, 4208.65, -187500.02, -187500.02, -177845.16, -187500.02, -136463.41, -187500.02, -187500.02, 0.00, 0.00, 0.00, 10:48:45.557
63, 7384.14, -187500.02, -187500.02, -177481.27, -187500.02, -136100.58, -187500.02, -187500.02, 0.00, 0.00, 0.00, 10:48:45.560
64, 10029.34, -187500.02, -187500.02, -177169.69, -187500.02, -135782.97, -187500.02, -187500.02, -0.01, -0.66, 0.77, 10:48:45.564
65, 8577.68, -187500.02, -187500.02, -177331.25, -187500.02, -135937.61, -187500.02, -187500.02, 0.00, 0.00, 0.00, 10:48:45.569
66, 4212.03, -187500.02, -187500.02, -177790.00, -187500.02, -136397.66, -187500.02, -187500.02, 0.00, 0.00, 0.00, 10:48:45.573
67, 6299.75, -187500.02, -187500.02, -177549.42, -187500.02, -136157.38, -187500.02, -187500.02, 0.00, 0.00, 0.00, 10:48:45.577
68, 8602.14, -187500.02, -187500.02, -177329.72, -187500.02, -135932.52, -187500.02, -187500.02, 0.00, 0.00, 0.00, 10:48:45.581
69, 9738.01, -187500.02, -187500.02, -177162.58, -187500.02, -135762.28, -187500.02, -187500.02, 0.00, 0.00, 0.00, 10:48:45.585
70, 7411.59, -187500.02, -187500.02, -177482.28, -187500.02, -136080.48, -187500.02, -187500.02, 0.00, 0.00, 0.00, 10:48:45.588
71, 6864.91, -187500.02, -187500.02, -177574.02, -187500.02, -136177.34, -187500.02, -187500.02, 0.00, 0.00, 0.00, 10:48:45.592
72, 8067.88, -187500.02, -187500.02, -177412.81, -187500.02, -136016.84, -187500.02, -187500.02, 0.00, 0.00, 0.00, 10:48:45.597
73, 9743.88, -187500.02, -187500.02, -177218.73, -187500.02, -135818.34, -187500.02, -187500.02, 0.00, -0.62, 0.77, 10:48:45.601
74, 7943.27, -187500.02, -187500.02, -177443.70, -187500.02, -136042.45, -187500.02, -187500.02, 0.00, 0.00, 0.00, 10:48:45.605
75, 6547.52, -187500.02, -187500.02, -177630.09, -187500.02, -136235.86, -187500.02, -187500.02, 0.00, 0.00, 0.00, 10:48:45.608
76, 7670.78, -187500.02, -187500.02, -177435.92, -187500.02, -136041.16, -187500.02, -187500.02, 0.00, 0.00, 0.00, 10:48:45.612
77, 9470.52, -187500.02, -187500.02, -177195.55, -187500.02, -135794.75, -187500.02, -187500.02, 0.00, 0.00, 0.00, 10:48:45.616
78, 8524.40, -187500.02, -187500.02, -177312.84, -187500.02, -135909.69, -187500.02, -187500.02, 0.00, 0.00, 0.00, 10:48:45.620
79, 6460.57, -187500.02, -187500.02, -177611.14, -187500.02, -136211.48, -187500.02, -187500.02, 0.00, 0.00, 0.00, 10:48:45.626
80, 7458.04, -187500.02, -187500.02, -177466.16, -187500.02, -136070.53, -187500.02, -187500.02, 0.00, 0.00, 0.00, 10:48:45.629
81, 9162.38, -187500.02, -187500.02, -177238.67, -187500.02, -135841.09, -187500.02, -187500.02, 0.00, 0.00, 0.00, 10:48:45.633
82, 9035.96, -187500.02, -187500.02, -177255.39, -187500.02, -135854.81, -187500.02, -187500.02, 0.00, 0.00, 0.00, 10:48:45.637
83, 6468.55, -187500.02, -187500.02, -177574.48, -187500.02, -136179.81, -187500.02, -187500.02, 0.02, -0.62, 0.77, 10:48:45.641
84, 7232.15, -187500.02, -187500.02, -177468.94, -187500.02, -136078.84, -187500.02, -187500.02, 0.00, 0.00, 0.00, 10:48:45.644
85, 8767.81, -187500.02, -187500.02, -177262.31, -187500.02, -135866.91, -187500.02, -187500.02, 0.00, 0.00, 0.00, 10:48:45.648
86, 9384.51, -187500.02, -187500.02, -177199.19, -187500.02, -135798.42, -187500.02, -187500.02, 0.00, 0.00, 0.00, 10:48:45.653
87, 6756.82, -187500.02, -187500.02, -177586.70, -187500.02, -136191.83, -187500.02, -187500.02, 0.00, 0.00, 0.00, 10:48:45.658
88, 7201.49, -187500.02, -187500.02, -177562.52, -187500.02, -136174.22, -187500.02, -187500.02, 0.00, 0.00, 0.00, 10:48:45.661
89, 8449.14, -187500.02, -187500.02, -177349.47, -187500.02, -135960.27, -187500.02, -187500.02, 0.00, 0.00, 0.00, 10:48:45.664
90, 8534.61, -187500.02, -187500.02, -177311.38, -187500.02, -135918.36, -187500.02, -187500.02, 0.00, 0.00, 0.00, 10:48:45.669
91, 4747.04, -187500.02, -187500.02, -177764.53, -187500.02, -136374.30, -187500.02, -187500.02, 0.00, 0.00, 0.00, 10:48:45.672
92, 6324.98, -187500.02, -187500.02, -177516.03, -187500.02, -136129.77, -187500.02, -187500.02, 0.00, 0.00, 0.00, 10:48:45.676
93, 9111.62, -187500.02, -187500.02, -177185.09, -187500.02, -135796.55, -187500.02, -187500.02, 0.01, -0.63, 0.78, 10:48:45.681
94, 9188.22, -187500.02, -187500.02, -177216.72, -187500.02, -135822.47, -187500.02, -187500.02, 0.00, 0.00, 0.00, 10:48:45.686
95, 4502.98, -187500.02, -187500.02, -177802.41, -187500.02, -136409.97, -187500.02, -187500.02, 0.00, 0.00, 0.00, 10:48:45.689
96, 5600.70, -187500.02, -187500.02, -177672.41, -187500.02, -136283.81, -187500.02, -187500.02, 0.00, 0.00, 0.00, 10:48:45.692
97, 8896.40, -187500.02, -187500.02, -177258.25, -187500.02, -135864.20, -187500.02, -187500.02, 0.00, 0.00, 0.00, 10:48:45.696
98, 9763.08, -187500.02, -187500.02, -177116.14, -187500.02, -135717.44, -187500.02, -187500.02, 0.00, 0.00, 0.00, 10:48:45.700
99, 5331.99, -187500.02, -187500.02, -177656.11, -187500.02, -136258.16, -187500.02, -187500.02, 0.00, 0.00, 0.00, 10:48:45.704
100, 4737.97, -187500.02, -187500.02, -177734.47, -187500.02, -136341.70, -187500.02, -187500.02, 0.00, 0.00, 0.00, 10:48:45.709
101, 7896.36, -187500.02, -187500.02, -177348.44, -187500.02, -135956.14, -187500.02, -187500.02, 0.00, 0.00, 0.00, 10:48:45.714
102, 9693.19, -187500.02, -187500.02, -177132.58, -187500.02, -135735.80, -187500.02, -187500.02, 0.00, 0.00, 0.00, 10:48:45.716
103, 6507.78, -187500.02, -187500.02, -177521.80, -187500.02, -136125.27, -187500.02, -187500.02, -0.02, -0.64, 0.79, 10:48:45.720
104, 4446.66, -187500.02, -187500.02, -177741.09, -187500.02, -136350.38, -187500.02, -187500.02, 0.00, 0.00, 0.00, 10:48:45.725
105, 7501.20, -187500.02, -187500.02, -177374.34, -187500.02, -135980.30, -187500.02, -187500.02, 0.00, 0.00, 0.00, 10:48:45.730
106, 9721.82, -187500.02, -187500.02, -177116.38, -187500.02, -135715.61, -187500.02, -187500.02, 0.00, 0.00, 0.00, 10:48:45.732
107, 7516.58, -187500.02, -187500.02, -177421.13, -187500.02, -136017.64, -187500.02, -187500.02, 0.00, 0.00, 0.00, 10:48:45.736
108, 4322.34, -187500.02, -187500.02, -177814.14, -187500.02, -136416.20, -187500.02, -187500.02, 0.00, 0.00, 0.00, 10:48:45.741
109, 7058.75, -187500.02, -187500.02, -177480.88, -187500.02, -136087.52, -187500.02, -187500.02, 0.00, 0.00, 0.00, 10:48:45.744
110, 9521.69, -187500.02, -187500.02, -177193.94, -187500.02, -135797.97, -187500.02, -187500.02, 0.00, 0.00, 0.00, 10:48:45.749
111, 8356.22, -187500.02, -187500.02, -177344.56, -187500.02, -135943.11, -187500.02, -187500.02, 0.00, 0.00, 0.00, 10:48:45.754
112, 4383.69, -187500.02, -187500.02, -177800.47, -187500.02, -136402.98, -187500.02, -187500.02, -0.01, -0.66, 0.78, 10:48:45.758
113, 6603.51, -187500.02, -187500.02, -177559.80, -187500.02, -136165.73, -187500.02, -187500.02, 0.00, 0.00, 0.00, 10:48:45.760
114, 9263.84, -187500.02, -187500.02, -177218.84, -187500.02, -135819.50, -187500.02, -187500.02, 0.00, 0.00, 0.00, 10:48:45.764
115, 9064.33, -187500.02, -187500.02, -177225.48, -187500.02, -135821.36, -187500.02, -187500.02, 0.00, 0.00, 0.00, 10:48:45.770
116, 4782.09, -187500.02, -187500.02, -177767.69, -187500.02, -136365.11, -187500.02, -187500.02, 0.00, 0.00, 0.00, 10:48:45.774
117, 6262.27, -187500.02, -187500.02, -177585.81, -187500.02, -136187.31, -187500.02, -187500.02, 0.00, 0.00, 0.00, 10:48:45.777
118, 9347.92, -187500.02, -187500.02, -177199.58, -187500.02, -135797.17, -187500.02, -187500.02, 0.00, 0.00, 0.00, 10:48:45.780
119, 9589.93, -187500.02, -187500.02, -177171.95, -187500.02, -135763.58, -187500.02, -187500.02, 0.00, 0.00, 0.00, 10:48:45.785
120, 4862.73, -187500.02, -187500.02, -177747.39, -187500.02, -136338.58, -187500.02, -187500.02, 0.00, 0.00, 0.00, 10:48:45.788
121, 5682.15, -187500.02, -187500.02, -177664.44, -187500.02, -136259.11, -187500.02, -187500.02, 0.00, 0.00, 0.00, 10:48:45.792
122, 9032.07, -187500.02, -187500.02, -177242.59, -187500.02, -135833.06, -187500.02, -187500.02, -0.01, -0.65, 0.77, 10:48:45.797
123, 10888.07, -187500.02, -187500.02, -177022.34, -187500.02, -135606.33, -187500.02, -187500.02, 0.00, 0.00, 0.00, 10:48:45.801
124, 9384.02, -187500.02, -187500.02, -177230.39, -187500.02, -135812.19, -187500.02, -187500.02, 0.00, 0.00, 0.00, 10:48:45.804
125, 7632.72, -187500.02, -187500.02, -177497.39, -187500.02, -136086.16, -187500.02, -187500.02, 0.00, 0.00, 0.00, 10:48:45.808
126, 8587.45, -187500.02, -187500.02, -177378.66, -187500.02, -135970.55, -187500.02, -187500.02, 0.00, 0.00, 0.00, 10:48:45.812
127, 10131.80, -187500.02, -187500.02, -177153.42, -187500.02, -135739.28, -187500.02, -187500.02, 0.00, 0.00, 0.00, 10:48:45.818
128, 9603.96, -187500.02, -187500.02, -177213.77, -187500.02, -135793.58, -187500.02, -187500.02, 0.00, 0.00, 0.00, 10:48:45.822
129, 7180.03, -187500.02, -187500.02, -177512.20, -187500.02, -136094.11, -187500.02, -187500.02, 0.00, 0.00, 0.00, 10:48:45.824
130, 7970.56, -187500.02, -187500.02, -177373.20, -187500.02, -135954.17, -187500.02, -187500.02, 0.00, 0.00, 0.00, 10:48:45.828
131, 9569.74, -187500.02, -187500.02, -177211.53, -187500.02, -135788.83, -187500.02, -187500.02, 0.00, 0.00, 0.00, 10:48:45.832
132, 9928.26, -187500.02, -187500.02, -177164.66, -187500.02, -135737.72, -187500.02, -187500.02, 0.02, -0.62, 0.77, 10:48:45.837
133, 7228.17, -187500.02, -187500.02, -177529.78, -187500.02, -136105.53, -187500.02, -187500.02, 0.00, 0.00, 0.00, 10:48:45.840
134, 7658.13, -187500.02, -187500.02, -177433.22, -187500.02, -136010.86, -187500.02, -187500.02, 0.00, 0.00, 0.00, 10:48:45.844
135, 9069.42, -187500.02, -187500.02, -177230.64, -187500.02, -135806.44, -187500.02, -187500.02, 0.00, 0.00, 0.00, 10:48:45.848
136, 10071.14, -187500.02, -187500.02, -177099.30, -187500.02, -135673.88, -187500.02, -187500.02, 0.00, 0.00, 0.00, 10:48:45.853
137, 7387.74, -187500.02, -187500.02, -177457.11, -187500.02, -136032.47, -187500.02, -187500.02, 0.00, 0.00, 0.00, 10:48:45.855
138, 7392.91, -187500.02, -187500.02, -177431.31, -187500.02, -136011.19, -187500.02, -187500.02, 0.00, 0.00, 0.00, 10:48:45.859
139, 8747.11, -187500.02, -187500.02, -177302.23, -187500.02, -135878.48, -187500.02, -187500.02, 0.00, 0.00, 0.00, 10:48:45.864
140, 10075.38, -187500.02, -187500.02, -177157.58, -187500.02, -135728.53, -187500.02, -187500.02, 0.00, 0.00, 0.00, 10:48:45.869
141, 7760.66, -187500.02, -187500.02, -177466.56, -187500.02, -136038.77, -187500.02, -187500.02, 0.00, 0.00, 0.00, 10:48:45.873
142, 8023.54, -187500.02, -187500.02, -177428.13, -187500.02, -136003.13, -187500.02, -187500.02, 0.02, -0.61, 0.76, 10:48:45.877
143, 10583.39, -187500.02, -187500.02, -177120.83, -187500.02, -135691.53, -187500.02, -187500.02, 0.00, 0.00, 0.00, 10:48:45.880
144, 11067.44, -187500.02, -187500.02, -177077.28, -187500.02, -135643.05, -187500.02, -187500.02, 0.00, 0.00, 0.00, 10:48:45.884
145, 6461.73, -187500.02, -187500.02, -177626.88, -187500.02, -136194.31, -187500.02, -187500.02, 0.00, 0.00, 0.00, 10:48:45.888
146, 6707.02, -187500.02, -187500.02, -177569.61, -187500.02, -136144.78, -187500.02, -187500.02, 0.00, 0.00, 0.00, 10:48:45.893
147, 10149.99, -187500.02, -187500.02, -177148.52, -187500.02, -135721.31, -187500.02, -187500.02, 0.00, 0.00, 0.00, 10:48:45.896
148, 11522.75, -187500.02, -187500.02, -177013.11, -187500.02, -135577.98, -187500.02, -187500.02, 0.00, 0.00, 0.00, 10:48:45.901
149, 7427.62, -187500.02, -187500.02, -177534.45, -187500.02, -136098.11, -187500.02, -187500.02, 0.00, 0.00, 0.00, 10:48:45.906
150, 6000.15, -187500.02, -187500.02, -177704.72, -187500.02, -136273.27, -187500.02, -187500.02, 0.00, 0.00, 0.00, 10:48:45.910
151, 9337.46, -187500.02, -187500.02, -177293.89, -187500.02, -135862.28, -187500.02, -187500.02, 0.00, 0.00, 0.00, 10:48:45.912
152, 11269.66, -187500.02, -187500.02, -177044.08, -187500.02, -135605.34, -187500.02, -187500.02, 0.01, -0.63, 0.77, 10:48:45.916
153, 8164.65, -187500.02, -187500.02, -177398.17, -187500.02, -135955.55, -187500.02, -187500.02, 0.00, 0.00, 0.00, 10:48:45.920
154, 5410.31, -187500.02, -187500.02, -177725.17, -187500.02, -136287.44, -187500.02, -187500.02, 0.00, 0.00, 0.00, 10:48:45.925
155, 8566.19, -187500.02, -187500.02, -177332.94, -187500.02, -135896.80, -187500.02, -187500.02, 0.00, 0.00, 0.00, 10:48:45.928
156, 10970.46, -187500.02, -187500.02, -177061.70, -187500.02, -135620.14, -187500.02, -187500.02, 0.00, 0.00, 0.00, 10:48:45.932
157, 8987.64, -187500.02, -187500.02, -177285.83, -187500.02, -135839.75, -187500.02, -187500.02, 0.00, 0.00, 0.00, 10:48:45.936
158, 5135.16, -187500.02, -187500.02, -177716.19, -187500.02, -136274.27, -187500.02, -187500.02, 0.00, 0.00, 0.00, 10:48:45.939
159, 8036.97, -187500.02, -187500.02, -177382.05, -187500.02, -135942.39, -187500.02, -187500.02, 0.00, 0.00, 0.00, 10:48:45.943
160, 10823.25, -187500.02, -187500.02, -177023.50, -187500.02, -135578.13, -187500.02, -187500.02, 0.00, 0.00, 0.00, 10:48:45.948
161, 9663.60, -187500.02, -187500.02, -177182.31, -187500.02, -135732.50, -187500.02, -187500.02, -0.01, -0.67, 0.77, 10:48:45.953
162, 4977.35, -187500.02, -187500.02, -177774.89, -187500.02, -136329.83, -187500.02, -187500.02, 0.00, 0.00, 0.00, 10:48:45.957
163, 7283.99, -187500.02, -187500.02, -177499.44, -187500.02, -136060.34, -187500.02, -187500.02, 0.00, 0.00, 0.00, 10:48:45.959
164, 10449.95, -187500.02, -187500.02, -177097.77, -187500.02, -135655.77, -187500.02, -187500.02, 0.00, 0.00, 0.00, 10:48:45.964
165, 10304.33, -187500.02, -187500.02, -177129.56, -187500.02, -135682.14, -187500.02, -187500.02, 0.00, 0.00, 0.00, 10:48:45.967
166, 5248.10, -187500.02, -187500.02, -177714.27, -187500.02, -136269.55, -187500.02, -187500.02, 0.00, 0.00, 0.00, 10:48:45.971
167, 6508.36, -187500.02, -187500.02, -177569.58, -187500.02, -136133.09, -187500.02, -187500.02, 0.00, 0.00, 0.00, 10:48:45.976
168, 10028.07, -187500.02, -187500.02, -177152.81, -187500.02, -135717.03, -187500.02, -187500.02, 0.00, 0.00, 0.00, 10:48:45.980
169, 10790.06, -187500.02, -187500.02, -177069.75, -187500.02, -135627.86, -187500.02, -187500.02, 0.00, 0.00, 0.00, 10:48:45.985
170, 5991.68, -187500.02, -187500.02, -177660.36, -187500.02, -136216.42, -187500.02, -187500.02, 0.00, 0.00, 0.00, 10:48:45.988
171, 5851.08, -187500.02, -187500.02, -177696.11, -187500.02, -136260.09, -187500.02, -187500.02, -0.00, -0.66, 0.76, 10:48:45.992
172, 9324.68, -187500.02, -187500.02, -177271.64, -187500.02, -135835.23, -187500.02, -187500.02, 0.00, 0.00, 0.00, 10:48:45.995
173, 10854.90, -187500.02, -187500.02, -177090.77, -187500.02, -135645.58, -187500.02, -187500.02, 0.00, 0.00, 0.00, 10:48:45.999
174, 6944.42, -187500.02, -187500.02, -177545.78, -187500.02, -136098.81, -187500.02, -187500.02, 0.00, 0.00, 0.00, 10:48:46.003
175, 5385.16, -187500.02, -187500.02, -177700.98, -187500.02, -136261.34, -187500.02, -187500.02, 0.00, 0.00, 0.00, 10:48:46.008
176, 9088.82, -187500.02, -187500.02, -177238.36, -187500.02, -135800.13, -187500.02, -187500.02, 0.00, 0.00, 0.00, 10:48:46.012
177, 11106.18, -187500.02, -187500.02, -177017.58, -187500.02, -135574.61, -187500.02, -187500.02, 0.00, 0.00, 0.00, 10:48:46.016
178, 8127.56, -187500.02, -187500.02, -177417.84, -187500.02, -135971.80, -187500.02, -187500.02, 0.00, 0.00, 0.00, 10:48:46.020
179, 5107.73, -187500.02, -187500.02, -177819.61, -187500.02, -136380.97, -187500.02, -187500.02, 0.00, 0.00, 0.00, 10:48:46.024
180, 7022.31, -187500.02, -187500.02, -177594.58, -187500.02, -136161.55, -187500.02, -187500.02, 0.00, 0.00, 0.00, 10:48:46.028
181, 8430.81, -187500.02, -187500.02, -177407.63, -187500.02, -135972.88, -187500.02, -187500.02, -0.00, -0.64, 0.76, 10:48:46.032
182, 8980.66, -187500.02, -187500.02, -177288.31, -187500.02, -135848.80, -187500.02, -187500.02, 0.00, 0.00, 0.00, 10:48:46.036
183, 6441.86, -187500.02, -187500.02, -177614.05, -187500.02, -136173.14, -187500.02, -187500.02, 0.00, 0.00, 0.00, 10:48:46.041
184, 6782.32, -187500.02, -187500.02, -177558.70, -187500.02, -136122.05, -187500.02, -187500.02, 0.00, 0.00, 0.00, 10:48:46.044
185, 8100.12, -187500.02, -187500.02, -177356.77, -187500.02, -135918.41, -187500.02, -187500.02, 0.00, 0.00, 0.00, 10:48:46.048
186, 9391.89, -187500.02, -187500.02, -177186.11, -187500.02, -135744.16, -187500.02, -187500.02, 0.00, 0.00, 0.00, 10:48:46.051
187, 7000.48, -187500.02, -187500.02, -177532.56, -187500.02, -136089.75, -187500.02, -187500.02, 0.00, 0.00, 0.00, 10:48:46.056
188, 6716.90, -187500.02, -187500.02, -177591.80, -187500.02, -136152.50, -187500.02, -187500.02, 0.00, 0.00, 0.00, 10:48:46.060
189, 7954.69, -187500.02, -187500.02, -177425.75, -187500.02, -135981.55, -187500.02, -187500.02, 0.00, 0.00, 0.00, 10:48:46.066
190, 9536.30, -187500.02, -187500.02, -177206.30, -187500.02, -135756.95, -187500.02, -187500.02, 0.00, 0.00, 0.00, 10:48:46.068
191, 7561.10, -187500.02, -187500.02, -177475.33, -187500.02, -136025.42, -187500.02, -187500.02, 0.02, -0.62, 0.77, 10:48:46.073
192, 6613.43, -187500.02, -187500.02, -177635.28, -187500.02, -136192.28, -187500.02, -187500.02, 0.00, 0.00, 0.00, 10:48:46.076
193, 7771.32, -187500.02, -187500.02, -177459.13, -187500.02, -136016.06, -187500.02, -187500.02, 0.00, 0.00, 0.00, 10:48:46.079
194, 9433.46, -187500.02, -187500.02, -177255.05, -187500.02, -135807.34, -187500.02, -187500.02, 0.00, 0.00, 0.00, 10:48:46.083
195, 8096.67, -187500.02, -187500.02, -177437.28, -187500.02, -135990.17, -187500.02, -187500.02, 0.00, 0.00, 0.00, 10:48:46.088
196, 6587.77, -187500.02, -187500.02, -177655.28, -187500.02, -136215.13, -187500.02, -187500.02, 0.00, 0.00, 0.00, 10:48:46.092
197, 8001.99, -187500.02, -187500.02, -177402.97, -187500.02, -135962.69, -187500.02, -187500.02, 0.00, 0.00, 0.00, 10:48:46.096
198, 9802.11, -187500.02, -187500.02, -177172.28, -187500.02, -135726.84, -187500.02, -187500.02, 0.00, 0.00, 0.00, 10:48:46.100
199, 6887.27, -187500.02, -187500.02, -177563.61, -187500.02, -136115.09, -187500.02, -187500.02, 0.00, 0.00, 0.00, 10:48:46.103
200, 4852.47, -187500.02, -187500.02, -177795.72, -187500.02, -136350.48, -187500.02, -187500.02, 0.00, 0.00, 0.00, 10:48:46.108
201, 8041.31, -187500.02, -187500.02, -177403.75, -187500.02, -135955.84, -187500.02, -187500.02, 0.01, -0.64, 0.77, 10:48:46.112
202, 10228.09, -187500.02, -187500.02, -177131.06, -187500.02, -135679.22, -187500.02, -187500.02, 0.00, 0.00, 0.00, 10:48:46.116
203, 8049.35, -187500.02, -187500.02, -177405.14, -187500.02, -135952.41, -187500.02, -187500.02, 0.00, 0.00, 0.00, 10:48:46.121
204, 4779.61, -187500.02, -187500.02, -177791.56, -187500.02, -136344.91, -187500.02, -187500.02, 0.00, 0.00, 0.00, 10:48:46.123
205, 7539.87, -187500.02, -187500.02, -177427.50, -187500.02, -135983.06, -187500.02, -187500.02, 0.00, 0.00, 0.00, 10:48:46.127
206, 10052.00, -187500.02, -187500.02, -177133.75, -187500.02, -135683.91, -187500.02, -187500.02, 0.00, 0.00, 0.00, 10:48:46.132
207, 8996.15, -187500.02, -187500.02, -177278.30, -187500.02, -135824.69, -187500.02, -187500.02, 0.00, 0.00, 0.00, 10:48:46.137
208, 4934.86, -187500.02, -187500.02, -177778.55, -187500.02, -136329.41, -187500.02, -187500.02, 0.00, 0.00, 0.00, 10:48:46.141
209, 7016.01, -187500.02, -187500.02, -177531.11, -187500.02, -136086.33, -187500.02, -187500.02, 0.00, 0.00, 0.00, 10:48:46.145
210, 9744.89, -187500.02, -187500.02, -177192.80, -187500.02, -135743.48, -187500.02, -187500.02, 0.00, -0.64, 0.78, 10:48:46.150
211, 9696.95, -187500.02, -187500.02, -177211.38, -187500.02, -135754.92, -187500.02, -187500.02, 0.00, 0.00, 0.00, 10:48:46.153
212, 5240.34, -187500.02, -187500.02, -177716.72, -187500.02, -136261.30, -187500.02, -187500.02, 0.00, 0.00, 0.00, 10:48:46.156
213, 6386.63, -187500.02, -187500.02, -177598.38, -187500.02, -136148.81, -187500.02, -187500.02, 0.00, 0.00, 0.00, 10:48:46.160
214, 9359.37, -187500.02, -187500.02, -177237.69, -187500.02, -135784.92, -187500.02, -187500.02, 0.00, 0.00, 0.00, 10:48:46.164
215, 10160.07, -187500.02, -187500.02, -177150.06, -187500.02, -135688.83, -187500.02, -187500.02, 0.00, 0.00, 0.00, 10:48:46.167
216, 5827.86, -187500.02, -187500.02, -177648.50, -187500.02, -136184.95, -187500.02, -187500.02, 0.00, 0.00, 0.00, 10:48:46.172
217, 5776.76, -187500.02, -187500.02, -177661.03, -187500.02, -136201.38, -187500.02, -187500.02, 0.00, 0.00, 0.00, 10:48:46.174
218, 8919.22, -187500.02, -187500.02, -177279.92, -187500.02, -135816.50, -187500.02, -187500.02, 0.00, 0.00, 0.00, 10:48:46.179
219, 10365.87, -187500.02, -187500.02, -177096.16, -187500.02, -135624.77, -187500.02, -187500.02, 0.00, 0.00, 0.00, 10:48:46.183
220, 6663.08, -187500.02, -187500.02, -177577.70, -187500.02, -136107.61, -187500.02, -187500.02, -0.01, -0.67, 0.77, 10:48:46.188
221, 5358.52, -187500.02, -187500.02, -177762.50, -187500.02, -136301.98, -187500.02, -187500.02, 0.00, 0.00, 0.00, 10:48:46.191
222, 8542.52, -187500.02, -187500.02, -177372.98, -187500.02, -135912.84, -187500.02, -187500.02, 0.00, 0.00, 0.00, 10:48:46.196
223, 10441.30, -187500.02, -187500.02, -177145.64, -187500.02, -135679.47, -187500.02, -187500.02, 0.00, 0.00, 0.00, 10:48:46.200
224, 7485.31, -187500.02, -187500.02, -177477.00, -187500.02, -136008.84, -187500.02, -187500.02, 0.00, 0.00, 0.00, 10:48:46.204
225, 4923.89, -187500.02, -187500.02, -177744.47, -187500.02, -136282.66, -187500.02, -187500.02, 0.00, 0.00, 0.00, 10:48:46.208
226, 7995.76, -187500.02, -187500.02, -177366.92, -187500.02, -135907.25, -187500.02, -187500.02, 0.00, 0.00, 0.00, 10:48:46.211
227, 10261.22, -187500.02, -187500.02, -177098.78, -187500.02, -135634.20, -187500.02, -187500.02, 0.00, 0.00, 0.00, 10:48:46.215
228, 8349.14, -187500.02, -187500.02, -177321.45, -187500.02, -135856.41, -187500.02, -187500.02, 0.00, 0.00, 0.00, 10:48:46.221
229, 4897.22, -187500.02, -187500.02, -177779.36, -187500.02, -136321.86, -187500.02, -187500.02, 0.00, 0.00, 0.00, 10:48:46.225
230, 7544.74, -187500.02, -187500.02, -177499.53, -187500.02, -136048.31, -187500.02, -187500.02, -0.00, -0.66, 0.77, 10:48:46.230
231, 9779.98, -187500.02, -187500.02, -177202.41, -187500.02, -135748.94, -187500.02, -187500.02, 0.00, 0.00, 0.00, 10:48:46.233
232, 10580.18, -187500.02, -187500.02, -177129.91, -187500.02, -135670.97, -187500.02, -187500.02, 0.00, 0.00, 0.00, 10:48:46.236
233, 7960.69, -187500.02, -187500.02, -177497.14, -187500.02, -136039.63, -187500.02, -187500.02, 0.00, 0.00, 0.00, 10:48:46.240
234, 7835.11, -187500.02, -187500.02, -177473.89, -187500.02, -136020.67, -187500.02, -187500.02, 0.00, 0.00, 0.00, 10:48:46.244
235, 9009.92, -187500.02, -187500.02, -177304.45, -187500.02, -135845.50, -187500.02, -187500.02, 0.00, 0.00, 0.00, 10:48:46.248
236, 10455.30, -187500.02, -187500.02, -177133.70, -187500.02, -135669.47, -187500.02, -187500.02, 0.00, 0.00, 0.00, 10:48:46.251
237, 8189.50, -187500.02, -187500.02, -177417.33, -187500.02, -135952.48, -187500.02, -187500.02, 0.00, 0.00, 0.00, 10:48:46.256
238, 7358.60, -187500.02, -187500.02, -177509.09, -187500.02, -136051.84, -187500.02, -187500.02, 0.00, 0.00, 0.00, 10:48:46.259
239, 8522.67, -187500.02, -187500.02, -177340.88, -187500.02, -135883.16, -187500.02, -187500.02, 0.00, 0.00, 0.00, 10:48:46.262
240, 10284.06, -187500.02, -187500.02, -177149.95, -187500.02, -135683.63, -187500.02, -187500.02, 0.00, -0.63, 0.77, 10:48:46.267
241, 8635.46, -187500.02, -187500.02, -177340.03, -187500.02, -135869.80, -187500.02, -187500.02, 0.00, 0.00, 0.00, 10:48:46.271
242, 7073.08, -187500.02, -187500.02, -177527.55, -187500.02, -136062.47, -187500.02, -187500.02, 0.00, 0.00, 0.00, 10:48:46.276
243, 8175.28, -187500.02, -187500.02, -177373.41, -187500.02, -135906.67, -187500.02, -187500.02, 0.00, 0.00, 0.00, 10:48:46.280
244, 9950.93, -187500.02, -187500.02, -177169.84, -187500.02, -135696.70, -187500.02, -187500.02, 0.00, 0.00, 0.00, 10:48:46.284
245, 9155.52, -187500.02, -187500.02, -177278.63, -187500.02, -135801.50, -187500.02, -187500.02, 0.00, 0.00, 0.00, 10:48:46.287
246, 7030.32, -187500.02, -187500.02, -177609.84, -187500.02, -136137.03, -187500.02, -187500.02, 0.00, 0.00, 0.00, 10:48:46.291
247, 7888.62, -187500.02, -187500.02, -177427.50, -187500.02, -135957.83, -187500.02, -187500.02, 0.00, 0.00, 0.00, 10:48:46.295
248, 9570.12, -187500.02, -187500.02, -177237.08, -187500.02, -135764.30, -187500.02, -187500.02, 0.00, 0.00, 0.00, 10:48:46.298
249, 9573.25, -187500.02, -187500.02, -177239.58, -187500.02, -135761.97, -187500.02, -187500.02, 0.00, 0.00, 0.00, 10:48:46.303
250, 7026.92, -187500.02, -187500.02, -177603.73, -187500.02, -136128.53, -187500.02, -187500.02, 0.02, -0.63, 0.77, 10:48:46.308
251, 7640.21, -187500.02, -187500.02