%OpenBCI Raw EEG Data
%
%Sample Rate = 250.0 Hz
%First Column = SampleIndex
%Last Column = Timestamp 
%Other Columns = EEG data in microvolts followed by Accel Data (in G) interleaved with Aux Data
0, 0.00, 0.00, 0.00, 0.00, 0.00, 0.00, 0.00, 0.00, 0.47, -0.45, 0.61, 10:47:47.458
1, 5002.57, -187500.02, -187500.02, -154054.39, -187500.02, -110976.50, -187500.02, -187500.02, 0.00, 0.00, 0.00, 10:47:47.476
2, 5118.48, -187500.02, -187500.02, -153998.59, -187500.02, -110919.05, -187500.02, -187500.02, 0.00, 0.00, 0.00, 10:47:47.480
3, 5560.15, -187500.02, -187500.02, -153926.47, -187500.02, -110841.56, -187500.02, -187500.02, 0.00, 0.00, 0.00, 10:47:47.482
4, 5472.06, -187500.02, -187500.02, -153942.09, -187500.02, -110853.30, -187500.02, -187500.02, 0.00, 0.00, 0.00, 10:47:47.485
5, 5007.98, -187500.02, -187500.02, -154046.45, -187500.02, -110958.05, -187500.02, -187500.02, 0.00, 0.00, 0.00, 10:47:47.490
6, 5007.44, -187500.02, -187500.02, -154000.45, -187500.02, -110911.16, -187500.02, -187500.02, 0.00, 0.00, 0.00, 10:47:47.494
7, 5680.65, -187500.02, -187500.02, -153921.97, -187500.02, -110831.14, -187500.02, -187500.02, -0.01, -0.51, 0.91, 10:47:47.497
8, 6146.64, -187500.02, -187500.02, -153875.19, -187500.02, -110782.66, -187500.02, -187500.02, 0.00, 0.00, 0.00, 10:47:47.502
9, 5570.68, -187500.02, -187500.02, -153926.83, -187500.02, -110832.66, -187500.02, -187500.02, 0.00, 0.00, 0.00, 10:47:47.505
10, 4990.45, -187500.02, -187500.02, -153984.00, -187500.02, -110889.57, -187500.02, -187500.02, 0.00, 0.00, 0.00, 10:47:47.510
11, 5456.64, -187500.02, -187500.02, -153936.59, -187500.02, -110842.05, -187500.02, -187500.02, 0.00, 0.00, 0.00, 10:47:47.514
12, 6147.20, -187500.02, -187500.02, -153854.41, -187500.02, -110757.38, -187500.02, -187500.02, 0.00, 0.00, 0.00, 10:47:47.518
13, 5764.47, -187500.02, -187500.02, -153900.97, -187500.02, -110800.86, -187500.02, -187500.02, 0.00, 0.00, 0.00, 10:47:47.521
14, 5074.43, -187500.02, -187500.02, -153979.39, -187500.02, -110877.63, -187500.02, -187500.02, 0.00, 0.00, 0.00, 10:47:47.526
15, 5354.20, -187500.02, -187500.02, -153928.75, -187500.02, -110824.35, -187500.02, -187500.02, 0.00, 0.00, 0.00, 10:47:47.530
16, 6117.09, -187500.02, -187500.02, -153862.75, -187500.02, -110754.88, -187500.02, -187500.02, 0.00, 0.00, 0.00, 10:47:47.533
17, 5963.71, -187500.02, -187500.02, -153930.20, -187500.02, -110820.39, -187500.02, -187500.02, 0.00, -0.51, 0.90, 10:47:47.538
18, 5219.04, -187500.02, -187500.02, -154020.25, -187500.02, -110907.72, -187500.02, -187500.02, 0.00, 0.00, 0.00, 10:47:47.542
19, 5333.13, -187500.02, -187500.02, -154001.09, -187500.02, -110885.37, -187500.02, -187500.02, 0.00, 0.00, 0.00, 10:47:47.545
20, 6107.37, -187500.02, -187500.02, -153915.53, -187500.02, -110799.63, -187500.02, -187500.02, 0.00, 0.00, 0.00, 10:47:47.549
21, 6093.60, -187500.02, -187500.02, -153905.09, -187500.02, -110788.98, -187500.02, -187500.02, 0.00, 0.00, 0.00, 10:47:47.553
22, 5349.40, -187500.02, -187500.02, -153983.44, -187500.02, -110871.11, -187500.02, -187500.02, 0.00, 0.00, 0.00, 10:47:47.558
23, 5267.97, -187500.02, -187500.02, -153956.06, -187500.02, -110845.07, -187500.02, -187500.02, 0.00, 0.00, 0.00, 10:47:47.561
24, 6044.31, -187500.02, -187500.02, -153864.39, -187500.02, -110750.03, -187500.02, -187500.02, 0.00, 0.00, 0.00, 10:47:47.566
25, 6296.51, -187500.02, -187500.02, -153888.98, -187500.02, -110772.73, -187500.02, -187500.02, 0.00, 0.00, 0.00, 10:47:47.569
26, 5587.02, -187500.02, -187500.02, -154006.11, -187500.02, -110892.84, -187500.02, -187500.02, 0.00, 0.00, 0.00, 10:47:47.573
27, 5291.08, -187500.02, -187500.02, -154004.45, -187500.02, -110890.48, -187500.02, -187500.02, 0.01, -0.52, 0.88, 10:47:47.578
28, 5821.49, -187500.02, -187500.02, -153919.45, -187500.02, -110801.08, -187500.02, -187500.02, 0.00, 0.00, 0.00, 10:47:47.582
29, 5932.80, -187500.02, -187500.02, -153934.05, -187500.02, -110813.66, -187500.02, -187500.02, 0.00, 0.00, 0.00, 10:47:47.585
30, 5382.57, -187500.02, -187500.02, -153994.84, -187500.02, -110876.02, -187500.02, -187500.02, 0.00, 0.00, 0.00, 10:47:47.589
31, 5370.65, -187500.02, -187500.02, -153987.23, -187500.02, -110867.89, -187500.02, -187500.02, 0.00, 0.00, 0.00, 10:47:47.594
32, 5831.88, -187500.02, -187500.02, -153908.72, -187500.02, -110786.24, -187500.02, -187500.02, 0.00, 0.00, 0.00, 10:47:47.597
33, 5877.57, -187500.02, -187500.02, -153899.80, -187500.02, -110772.88, -187500.02, -187500.02, 0.00, 0.00, 0.00, 10:47:47.601
34, 5362.43, -187500.02, -187500.02, -153992.61, -187500.02, -110866.05, -187500.02, -187500.02, 0.00, 0.00, 0.00, 10:47:47.606
35, 5221.43, -187500.02, -187500.02, -153996.55, -187500.02, -110871.17, -187500.02, -187500.02, 0.00, 0.00, 0.00, 10:47:47.610
36, 5666.12, -187500.02, -187500.02, -153921.64, -187500.02, -110794.40, -187500.02, -187500.02, 0.00, 0.00, 0.00, 10:47:47.613
37, 5832.15, -187500.02, -187500.02, -153884.52, -187500.02, -110755.77, -187500.02, -187500.02, 0.01, -0.51, 0.87, 10:47:47.617
38, 5373.81, -187500.02, -187500.02, -153965.83, -187500.02, -110837.36, -187500.02, -187500.02, 0.00, 0.00, 0.00, 10:47:47.621
39, 5109.79, -187500.02, -187500.02, -153982.86, -187500.02, -110855.73, -187500.02, -187500.02, 0.00, 0.00, 0.00, 10:47:47.626
40, 5543.99, -187500.02, -187500.02, -153908.20, -187500.02, -110777.79, -187500.02, -187500.02, 0.00, 0.00, 0.00, 10:47:47.631
41, 5899.74, -187500.02, -187500.02, -153906.08, -187500.02, -110772.41, -187500.02, -187500.02, 0.00, 0.00, 0.00, 10:47:47.634
42, 5495.18, -187500.02, -187500.02, -153986.58, -187500.02, -110853.96, -187500.02, -187500.02, 0.00, 0.00, 0.00, 10:47:47.636
43, 5083.39, -187500.02, -187500.02, -154005.89, -187500.02, -110872.90, -187500.02, -187500.02, 0.00, 0.00, 0.00, 10:47:47.641
44, 5409.88, -187500.02, -187500.02, -153951.34, -187500.02, -110819.19, -187500.02, -187500.02, 0.00, 0.00, 0.00, 10:47:47.645
45, 5803.79, -187500.02, -187500.02, -153909.81, -187500.02, -110777.05, -187500.02, -187500.02, 0.00, 0.00, 0.00, 10:47:47.649
46, 5488.38, -187500.02, -187500.02, -153940.58, -187500.02, -110805.28, -187500.02, -187500.02, 0.00, 0.00, 0.00, 10:47:47.654
47, 5052.46, -187500.02, -187500.02, -153989.64, -187500.02, -110854.34, -187500.02, -187500.02, 0.01, -0.50, 0.87, 10:47:47.657
48, 5292.83, -187500.02, -187500.02, -153951.75, -187500.02, -110816.08, -187500.02, -187500.02, 0.00, 0.00, 0.00, 10:47:47.661
49, 5784.90, -187500.02, -187500.02, -153903.09, -187500.02, -110765.12, -187500.02, -187500.02, 0.00, 0.00, 0.00, 10:47:47.665
50, 5648.89, -187500.02, -187500.02, -153970.56, -187500.02, -110829.87, -187500.02, -187500.02, 0.00, 0.00, 0.00, 10:47:47.670
51, 5142.58, -187500.02, -187500.02, -154064.94, -187500.02, -110927.41, -187500.02, -187500.02, 0.00, 0.00, 0.00, 10:47:47.674
52, 5214.42, -187500.02, -187500.02, -154020.64, -187500.02, -110882.51, -187500.02, -187500.02, 0.00, 0.00, 0.00, 10:47:47.677
53, 5713.60, -187500.02, -187500.02, -153939.67, -187500.02, -110797.28, -187500.02, -187500.02, 0.00, 0.00, 0.00, 10:47:47.680
54, 5714.54, -187500.02, -187500.02, -153966.91, -187500.02, -110823.56, -187500.02, -187500.02, 0.00, 0.00, 0.00, 10:47:47.685
55, 5128.79, -187500.02, -187500.02, -154024.61, -187500.02, -110882.22, -187500.02, -187500.02, 0.00, 0.00, 0.00, 10:47:47.689
56, 5101.58, -187500.02, -187500.02, -154001.88, -187500.02, -110857.77, -187500.02, -187500.02, 0.01, -0.53, 0.86, 10:47:47.692
57, 5586.10, -187500.02, -187500.02, -153925.02, -187500.02, -110775.71, -187500.02, -187500.02, 0.00, 0.00, 0.00, 10:47:47.697
58, 5681.21, -187500.02, -187500.02, -153918.64, -187500.02, -110763.98, -187500.02, -187500.02, 0.00, 0.00, 0.00, 10:47:47.702
59, 5167.70, -187500.02, -187500.02, -153988.38, -187500.02, -110835.41, -187500.02, -187500.02, 0.00, 0.00, 0.00, 10:47:47.706
60, 4980.24, -187500.02, -187500.02, -153948.17, -187500.02, -110795.78, -187500.02, -187500.02, 0.00, 0.00, 0.00, 10:47:47.709
61, 5478.43, -187500.02, -187500.02, -153886.59, -187500.02, -110731.03, -187500.02, -187500.02, 0.00, 0.00, 0.00, 10:47:47.713
62, 5670.88, -187500.02, -187500.02, -153852.78, -187500.02, -110695.70, -187500.02, -187500.02, 0.00, 0.00, 0.00, 10:47:47.717
63, 5179.21, -187500.02, -187500.02, -153891.00, -187500.02, -110735.81, -187500.02, -187500.02, 0.00, 0.00, 0.00, 10:47:47.721
64, 4958.11, -187500.02, -187500.02, -153923.38, -187500.02, -110769.41, -187500.02, -187500.02, 0.00, 0.00, 0.00, 10:47:47.726
65, 5494.39, -187500.02, -187500.02, -153943.55, -187500.02, -110788.34, -187500.02, -187500.02, 0.00, 0.00, 0.00, 10:47:47.730
66, 5805.08, -187500.02, -187500.02, -153917.17, -187500.02, -110759.35, -187500.02, -187500.02, -0.00, -0.52, 0.87, 10:47:47.733
67, 5428.70, -187500.02, -187500.02, -153991.16, -187500.02, -110831.26, -187500.02, -187500.02, 0.00, 0.00, 0.00, 10:47:47.737
68, 5007.89, -187500.02, -187500.02, -154034.50, -187500.02, -110875.24, -187500.02, -187500.02, 0.00, 0.00, 0.00, 10:47:47.741
69, 5277.94, -187500.02, -187500.02, -153951.91, -187500.02, -110790.80, -187500.02, -187500.02, 0.00, 0.00, 0.00, 10:47:47.745
70, 5701.86, -187500.02, -187500.02, -153914.80, -187500.02, -110749.23, -187500.02, -187500.02, 0.00, 0.00, 0.00, 10:47:47.749
71, 5418.93, -187500.02, -187500.02, -153970.67, -187500.02, -110801.88, -187500.02, -187500.02, 0.00, 0.00, 0.00, 10:47:47.753
72, 4881.31, -187500.02, -187500.02, -153951.48, -187500.02, -110780.43, -187500.02, -187500.02, 0.00, 0.00, 0.00, 10:47:47.757
73, 5122.77, -187500.02, -187500.02, -153940.53, -187500.02, -110765.90, -187500.02, -187500.02, 0.00, 0.00, 0.00, 10:47:47.760
74, 5566.68, -187500.02, -187500.02, -153924.48, -187500.02, -110747.32, -187500.02, -187500.02, 0.00, 0.00, 0.00, 10:47:47.765
75, 5380.09, -187500.02, -187500.02, -153962.98, -187500.02, -110785.73, -187500.02, -187500.02, 0.00, 0.00, 0.00, 10:47:47.769
76, 4809.07, -187500.02, -187500.02, -153996.88, -187500.02, -110819.45, -187500.02, -187500.02, 0.00, -0.54, 0.86, 10:47:47.773
77, 4941.32, -187500.02, -187500.02, -154017.13, -187500.02, -110837.45, -187500.02, -187500.02, 0.00, 0.00, 0.00, 10:47:47.777
78, 5395.58, -187500.02, -187500.02, -153972.27, -187500.02, -110790.66, -187500.02, -187500.02, 0.00, 0.00, 0.00, 10:47:47.781
79, 5336.28, -187500.02, -187500.02, -153955.39, -187500.02, -110772.65, -187500.02, -187500.02, 0.00, 0.00, 0.00, 10:47:47.786
80, 4845.21, -187500.02, -187500.02, -154030.53, -187500.02, -110848.60, -187500.02, -187500.02, 0.00, 0.00, 0.00, 10:47:47.788
81, 4810.30, -187500.02, -187500.02, -154017.27, -187500.02, -110837.34, -187500.02, -187500.02, 0.00, 0.00, 0.00, 10:47:47.793
82, 5373.87, -187500.02, -187500.02, -153996.25, -187500.02, -110811.88, -187500.02, -187500.02, 0.00, 0.00, 0.00, 10:47:47.797
83, 5490.57, -187500.02, -187500.02, -154025.39, -187500.02, -110837.54, -187500.02, -187500.02, 0.00, 0.00, 0.00, 10:47:47.800
84, 4903.61, -187500.02, -187500.02, -154046.00, -187500.02, -110856.40, -187500.02, -187500.02, 0.00, 0.00, 0.00, 10:47:47.805
85, 4731.91, -187500.02, -187500.02, -154041.33, -187500.02, -110849.63, -187500.02, -187500.02, 0.00, 0.00, 0.00, 10:47:47.809
86, 5135.92, -187500.02, -187500.02, -153963.97, -187500.02, -110770.26, -187500.02, -187500.02, 0.01, -0.53, 0.85, 10:47:47.814
87, 5383.66, -187500.02, -187500.02, -153956.19, -187500.02, -110759.23, -187500.02, -187500.02, 0.00, 0.00, 0.00, 10:47:47.817
88, 4946.44, -187500.02, -187500.02, -154009.22, -187500.02, -110810.18, -187500.02, -187500.02, 0.00, 0.00, 0.00, 10:47:47.821
89, 4675.18, -187500.02, -187500.02, -154036.23, -187500.02, -110834.74, -187500.02, -187500.02, 0.00, 0.00, 0.00, 10:47:47.825
90, 5054.51, -187500.02, -187500.02, -153987.72, -187500.02, -110783.00, -187500.02, -187500.02, 0.00, 0.00, 0.00, 10:47:47.828
91, 5393.79, -187500.02, -187500.02, -153981.25, -187500.02, -110774.15, -187500.02, -187500.02, 0.00, 0.00, 0.00, 10:47:47.833
92, 5031.13, -187500.02, -187500.02, -154057.03, -187500.02, -110852.29, -187500.02, -187500.02, 0.00, 0.00, 0.00, 10:47:47.838
93, 4587.76, -187500.02, -187500.02, -154045.69, -187500.02, -110840.66, -187500.02, -187500.02, 0.00, 0.00, 0.00, 10:47:47.840
94, 4873.98, -187500.02, -187500.02, -153980.88, -187500.02, -110772.05, -187500.02, -187500.02, 0.00, 0.00, 0.00, 10:47:47.844
95, 5319.07, -187500.02, -187500.02, -153932.84, -187500.02, -110717.95, -187500.02, -187500.02, 0.01, -0.52, 0.85, 10:47:47.849
96, 5159.92, -187500.02, -187500.02, -154013.19, -187500.02, -110795.54, -187500.02, -187500.02, 0.00, 0.00, 0.00, 10:47:47.853
97, 4745.14, -187500.02, -187500.02, -154101.73, -187500.02, -110884.09, -187500.02, -187500.02, 0.00, 0.00, 0.00, 10:47:47.857
98, 4907.06, -187500.02, -187500.02, -154082.08, -187500.02, -110860.09, -187500.02, -187500.02, 0.00, 0.00, 0.00, 10:47:47.861
99, 5291.91, -187500.02, -187500.02, -153998.47, -187500.02, -110773.19, -187500.02, -187500.02, 0.00, 0.00, 0.00, 10:47:47.866
100, 5150.91, -187500.02, -187500.02, -154008.55, -187500.02, -110782.38, -187500.02, -187500.02, 0.00, 0.00, 0.00, 10:47:47.869
101, 4639.64, -187500.02, -187500.02, -154045.92, -187500.02, -110819.59, -187500.02, -187500.02, 0.00, 0.00, 0.00, 10:47:47.872
102, 4711.99, -187500.02, -187500.02, -154005.30, -187500.02, -110779.55, -187500.02, -187500.02, 0.00, 0.00, 0.00, 10:47:47.877
103, 5255.63, -187500.02, -187500.02, -153977.30, -187500.02, -110749.76, -187500.02, -187500.02, 0.00, 0.00, 0.00, 10:47:47.881
104, 5320.32, -187500.02, -187500.02, -154052.63, -187500.02, -110825.00, -187500.02, -187500.02, 0.00, 0.00, 0.00, 10:47:47.885
105, 4756.14, -187500.02, -187500.02, -154100.39, -187500.02, -110869.37, -187500.02, -187500.02, 0.01, -0.53, 0.86, 10:47:47.889
106, 4669.17, -187500.02, -187500.02, -154079.36, -187500.02, -110843.02, -187500.02, -187500.02, 0.00, 0.00, 0.00, 10:47:47.894
107, 5091.93, -187500.02, -187500.02, -153995.33, -187500.02, -110755.55, -187500.02, -187500.02, 0.00, 0.00, 0.00, 10:47:47.897
108, 5193.29, -187500.02, -187500.02, -153955.81, -187500.02, -110710.91, -187500.02, -187500.02, 0.00, 0.00, 0.00, 10:47:47.900
109, 4760.12, -187500.02, -187500.02, -153989.19, -187500.02, -110741.31, -187500.02, -187500.02, 0.00, 0.00, 0.00, 10:47:47.905
110, 4695.54, -187500.02, -187500.02, -154056.44, -187500.02, -110809.20, -187500.02, -187500.02, 0.00, 0.00, 0.00, 10:47:47.909
111, 5146.82, -187500.02, -187500.02, -154049.73, -187500.02, -110799.91, -187500.02, -187500.02, 0.00, 0.00, 0.00, 10:47:47.913
112, 5331.63, -187500.02, -187500.02, -154012.81, -187500.02, -110759.75, -187500.02, -187500.02, 0.00, 0.00, 0.00, 10:47:47.917
113, 4945.37, -187500.02, -187500.02, -154093.30, -187500.02, -110842.32, -187500.02, -187500.02, 0.00, 0.00, 0.00, 10:47:47.922
114, 4603.25, -187500.02, -187500.02, -154100.91, -187500.02, -110852.34, -187500.02, -187500.02, 0.00, 0.00, 0.00, 10:47:47.925
115, 4931.55, -187500.02, -187500.02, -154019.20, -187500.02, -110769.01, -187500.02, -187500.02, 0.00, -0.54, 0.87, 10:47:47.928
116, 5298.10, -187500.02, -187500.02, -153975.33, -187500.02, -110721.69, -187500.02, -187500.02, 0.00, 0.00, 0.00, 10:47:47.933
117, 5022.68, -187500.02, -187500.02, -154056.06, -187500.02, -110801.66, -187500.02, -187500.02, 0.00, 0.00, 0.00, 10:47:47.937
118, 4631.71, -187500.02, -187500.02, -154105.81, -187500.02, -110853.74, -187500.02, -187500.02, 0.00, 0.00, 0.00, 10:47:47.941
119, 4873.69, -187500.02, -187500.02, -154055.03, -187500.02, -110802.89, -187500.02, -187500.02, 0.00, 0.00, 0.00, 10:47:47.945
120, 5260.01, -187500.02, -187500.02, -153991.88, -187500.02, -110737.80, -187500.02, -187500.02, 0.00, 0.00, 0.00, 10:47:47.948
121, 5036.88, -187500.02, -187500.02, -154011.61, -187500.02, -110754.16, -187500.02, -187500.02, 0.00, 0.00, 0.00, 10:47:47.952
122, 4621.71, -187500.02, -187500.02, -154059.92, -187500.02, -110801.23, -187500.02, -187500.02, 0.00, 0.00, 0.00, 10:47:47.956
123, 4860.57, -187500.02, -187500.02, -154052.53, -187500.02, -110792.50, -187500.02, -187500.02, 0.00, 0.00, 0.00, 10:47:47.961
124, 5430.65, -187500.02, -187500.02, -154098.13, -187500.02, -110835.50, -187500.02, -187500.02, 0.00, 0.00, 0.00, 10:47:47.965
125, 5237.84, -187500.02, -187500.02, -154113.39, -187500.02, -110852.16, -187500.02, -187500.02, 0.01, -0.53, 0.85, 10:47:47.969
126, 4737.68, -187500.02, -187500.02, -154156.36, -187500.02, -110892.19, -187500.02, -187500.02, 0.00, 0.00, 0.00, 10:47:47.973
127, 4777.69, -187500.02, -187500.02, -154150.44, -187500.02, -110884.95, -187500.02, -187500.02, 0.00, 0.00, 0.00, 10:47:47.976
128, 5214.30, -187500.02, -187500.02, -154089.64, -187500.02, -110821.94, -187500.02, -187500.02, 0.00, 0.00, 0.00, 10:47:47.980
129, 5227.69, -187500.02, -187500.02, -154076.27, -187500.02, -110804.95, -187500.02, -187500.02, 0.00, 0.00, 0.00, 10:47:47.985
130, 4793.64, -187500.02, -187500.02, -154148.17, -187500.02, -110874.66, -187500.02, -187500.02, 0.00, 0.00, 0.00, 10:47:47.988
131, 4720.98, -187500.02, -187500.02, -154142.52, -187500.02, -110865.43, -187500.02, -187500.02, 0.00, 0.00, 0.00, 10:47:47.993
132, 5163.66, -187500.02, -187500.02, -154096.47, -187500.02, -110815.36, -187500.02, -187500.02, 0.00, 0.00, 0.00, 10:47:47.997
133, 5268.73, -187500.02, -187500.02, -154081.64, -187500.02, -110800.97, -187500.02, -187500.02, 0.00, 0.00, 0.00, 10:47:48.001
134, 4798.52, -187500.02, -187500.02, -154125.88, -187500.02, -110843.55, -187500.02, -187500.02, 0.00, 0.00, 0.00, 10:47:48.004
135, 4577.32, -187500.02, -187500.02, -154107.09, -187500.02, -110822.43, -187500.02, -187500.02, 0.01, -0.57, 0.83, 10:47:48.008
136, 4969.82, -187500.02, -187500.02, -154008.81, -187500.02, -110719.85, -187500.02, -187500.02, 0.00, 0.00, 0.00, 10:47:48.013
137, 5338.51, -187500.02, -187500.02, -154030.16, -187500.02, -110738.34, -187500.02, -187500.02, 0.00, 0.00, 0.00, 10:47:48.016
138, 5006.54, -187500.02, -187500.02, -154145.02, -187500.02, -110854.05, -187500.02, -187500.02, 0.00, 0.00, 0.00, 10:47:48.021
139, 4669.26, -187500.02, -187500.02, -154155.03, -187500.02, -110864.05, -187500.02, -187500.02, 0.00, 0.00, 0.00, 10:47:48.025
140, 5001.20, -187500.02, -187500.02, -154099.38, -187500.02, -110805.75, -187500.02, -187500.02, 0.00, 0.00, 0.00, 10:47:48.029
141, 5261.89, -187500.02, -187500.02, -154037.73, -187500.02, -110742.36, -187500.02, -187500.02, 0.00, 0.00, 0.00, 10:47:48.032
142, 4962.49, -187500.02, -187500.02, -154080.94, -187500.02, -110782.93, -187500.02, -187500.02, 0.00, 0.00, 0.00, 10:47:48.036
143, 4639.77, -187500.02, -187500.02, -154135.61, -187500.02, -110837.65, -187500.02, -187500.02, 0.00, 0.00, 0.00, 10:47:48.040
144, 4952.59, -187500.02, -187500.02, -154112.08, -187500.02, -110811.20, -187500.02, -187500.02, 0.01, -0.59, 0.81, 10:47:48.044
145, 5313.90, -187500.02, -187500.02, -154077.55, -187500.02, -110772.49, -187500.02, -187500.02, 0.00, 0.00, 0.00, 10:47:48.049
146, 5054.49, -187500.02, -187500.02, -154107.31, -187500.02, -110803.00, -187500.02, -187500.02, 0.00, 0.00, 0.00, 10:47:48.053
147, 4569.21, -187500.02, -187500.02, -154130.06, -187500.02, -110826.56, -187500.02, -187500.02, 0.00, 0.00, 0.00, 10:47:48.056
148, 4733.41, -187500.02, -187500.02, -154055.53, -187500.02, -110749.42, -187500.02, -187500.02, 0.00, 0.00, 0.00, 10:47:48.061
149, 5213.48, -187500.02, -187500.02, -153987.48, -187500.02, -110677.99, -187500.02, -187500.02, 0.00, 0.00, 0.00, 10:47:48.065
150, 5178.14, -187500.02, -187500.02, -154048.48, -187500.02, -110737.06, -187500.02, -187500.02, 0.00, 0.00, 0.00, 10:47:48.068
151, 4755.09, -187500.02, -187500.02, -154162.70, -187500.02, -110853.38, -187500.02, -187500.02, 0.00, 0.00, 0.00, 10:47:48.072
152, 4811.19, -187500.02, -187500.02, -154145.73, -187500.02, -110832.13, -187500.02, -187500.02, 0.00, 0.00, 0.00, 10:47:48.078
153, 5265.31, -187500.02, -187500.02, -154108.48, -187500.02, -110791.54, -187500.02, -187500.02, 0.00, 0.00, 0.00, 10:47:48.081
154, 5213.86, -187500.02, -187500.02, -154121.95, -187500.02, -110803.31, -187500.02, -187500.02, 0.01, -0.60, 0.80, 10:47:48.084
155, 4700.64, -187500.02, -187500.02, -154148.48, -187500.02, -110828.08, -187500.02, -187500.02, 0.00, 0.00, 0.00, 10:47:48.088
156, 4697.80, -187500.02, -187500.02, -154128.14, -187500.02, -110804.68, -187500.02, -187500.02, 0.00, 0.00, 0.00, 10:47:48.092
157, 5169.27, -187500.02, -187500.02, -154061.78, -187500.02, -110735.12, -187500.02, -187500.02, 0.00, 0.00, 0.00, 10:47:48.096
158, 5319.07, -187500.02, -187500.02, -154077.45, -187500.02, -110749.41, -187500.02, -187500.02, 0.00, 0.00, 0.00, 10:47:48.101
159, 4880.68, -187500.02, -187500.02, -154159.80, -187500.02, -110836.91, -187500.02, -187500.02, 0.00, 0.00, 0.00, 10:47:48.106
160, 4705.24, -187500.02, -187500.02, -154177.25, -187500.02, -110857.97, -187500.02, -187500.02, 0.00, 0.00, 0.00, 10:47:48.109
161, 5054.09, -187500.02, -187500.02, -154102.83, -187500.02, -110781.55, -187500.02, -187500.02, 0.00, 0.00, 0.00, 10:47:48.112
162, 5288.44, -187500.02, -187500.02, -154063.64, -187500.02, -110737.06, -187500.02, -187500.02, 0.00, 0.00, 0.00, 10:47:48.117
163, 4918.23, -187500.02, -187500.02, -154117.31, -187500.02, -110789.30, -187500.02, -187500.02, 0.00, 0.00, 0.00, 10:47:48.121
164, 4676.39, -187500.02, -187500.02, -154136.42, -187500.02, -110807.48, -187500.02, -187500.02, 0.01, -0.66, 0.78, 10:47:48.124
165, 5087.19, -187500.02, -187500.02, -154111.34, -187500.02, -110778.62, -187500.02, -187500.02, 0.00, 0.00, 0.00, 10:47:48.128
166, 5444.95, -187500.02, -187500.02, -154115.72, -187500.02, -110779.20, -187500.02, -187500.02, 0.00, 0.00, 0.00, 10:47:48.133
167, 5160.46, -187500.02, -187500.02, -154202.88, -187500.02, -110865.59, -187500.02, -187500.02, 0.00, 0.00, 0.00, 10:47:48.137
168, 4707.23, -187500.02, -187500.02, -154202.25, -187500.02, -110864.54, -187500.02, -187500.02, 0.00, 0.00, 0.00, 10:47:48.141
169, 4971.27, -187500.02, -187500.02, -154142.08, -187500.02, -110800.23, -187500.02, -187500.02, 0.00, 0.00, 0.00, 10:47:48.145
170, 5352.64, -187500.02, -187500.02, -154092.27, -187500.02, -110746.52, -187500.02, -187500.02, 0.00, 0.00, 0.00, 10:47:48.149
171, 5156.88, -187500.02, -187500.02, -154132.50, -187500.02, -110785.03, -187500.02, -187500.02, 0.00, 0.00, 0.00, 10:47:48.152
172, 4770.62, -187500.02, -187500.02, -154213.22, -187500.02, -110864.98, -187500.02, -187500.02, 0.00, 0.00, 0.00, 10:47:48.156
173, 4898.45, -187500.02, -187500.02, -154185.08, -187500.02, -110835.84, -187500.02, -187500.02, 0.00, 0.00, 0.00, 10:47:48.160
174, 5322.11, -187500.02, -187500.02, -154137.95, -187500.02, -110785.05, -187500.02, -187500.02, 0.01, -0.69, 0.76, 10:47:48.165
175, 5196.38, -187500.02, -187500.02, -154159.58, -187500.02, -110803.90, -187500.02, -187500.02, 0.00, 0.00, 0.00, 10:47:48.168
176, 4708.37, -187500.02, -187500.02, -154213.78, -187500.02, -110854.81, -187500.02, -187500.02, 0.00, 0.00, 0.00, 10:47:48.173
177, 4701.98, -187500.02, -187500.02, -154155.13, -187500.02, -110793.95, -187500.02, -187500.02, 0.00, 0.00, 0.00, 10:47:48.176
178, 5170.58, -187500.02, -187500.02, -154066.50, -187500.02, -110702.30, -187500.02, -187500.02, 0.00, 0.00, 0.00, 10:47:48.180
179, 5318.31, -187500.02, -187500.02, -154119.86, -187500.02, -110752.91, -187500.02, -187500.02, 0.00, 0.00, 0.00, 10:47:48.184
180, 4856.16, -187500.02, -187500.02, -154215.23, -187500.02, -110848.16, -187500.02, -187500.02, 0.00, 0.00, 0.00, 10:47:48.189
181, 4772.50, -187500.02, -187500.02, -154237.63, -187500.02, -110871.96, -187500.02, -187500.02, 0.00, 0.00, 0.00, 10:47:48.192
182, 5136.12, -187500.02, -187500.02, -154159.58, -187500.02, -110793.66, -187500.02, -187500.02, 0.00, 0.00, 0.00, 10:47:48.195
183, 5254.36, -187500.02, -187500.02, -154130.42, -187500.02, -110764.16, -187500.02, -187500.02, 0.00, 0.00, 0.00, 10:47:48.199
184, 4808.46, -187500.02, -187500.02, -154190.38, -187500.02, -110824.04, -187500.02, -187500.02, 0.01, -0.62, 0.77, 10:47:48.204
185, 4615.48, -187500.02, -187500.02, -154208.19, -187500.02, -110842.50, -187500.02, -187500.02, 0.00, 0.00, 0.00, 10:47:48.208
186, 5051.27, -187500.02, -187500.02, -154170.92, -187500.02, -110801.28, -187500.02, -187500.02, 0.00, 0.00, 0.00, 10:47:48.213
187, 5351.54, -187500.02, -187500.02, -154197.53, -187500.02, -110825.58, -187500.02, -187500.02, 0.00, 0.00, 0.00, 10:47:48.216
188, 4878.04, -187500.02, -187500.02, -154213.06, -187500.02, -110840.27, -187500.02, -187500.02, 0.00, 0.00, 0.00, 10:47:48.221
189, 4499.43, -187500.02, -187500.02, -154185.75, -187500.02, -110810.09, -187500.02, -187500.02, 0.00, 0.00, 0.00, 10:47:48.223
190, 4805.54, -187500.02, -187500.02, -154092.23, -187500.02, -110712.95, -187500.02, -187500.02, 0.00, 0.00, 0.00, 10:47:48.228
191, 5288.62, -187500.02, -187500.02, -154109.94, -187500.02, -110728.52, -187500.02, -187500.02, 0.00, 0.00, 0.00, 10:47:48.232
192, 5055.25, -187500.02, -187500.02, -154210.64, -187500.02, -110828.88, -187500.02, -187500.02, 0.00, 0.00, 0.00, 10:47:48.236
193, 4592.17, -187500.02, -187500.02, -154242.36, -187500.02, -110860.58, -187500.02, -187500.02, 0.03, -0.63, 0.76, 10:47:48.240
194, 4821.90, -187500.02, -187500.02, -154214.58, -187500.02, -110831.75, -187500.02, -187500.02, 0.00, 0.00, 0.00, 10:47:48.245
195, 5172.28, -187500.02, -187500.02, -154150.45, -187500.02, -110766.62, -187500.02, -187500.02, 0.00, 0.00, 0.00, 10:47:48.247
196, 4939.91, -187500.02, -187500.02, -154129.41, -187500.02, -110743.21, -187500.02, -187500.02, 0.00, 0.00, 0.00, 10:47:48.251
197, 4556.85, -187500.02, -187500.02, -154201.86, -187500.02, -110815.34, -187500.02, -187500.02, 0.00, 0.00, 0.00, 10:47:48.256
198, 4701.85, -187500.02, -187500.02, -154218.14, -187500.02, -110833.55, -187500.02, -187500.02, 0.00, 0.00, 0.00, 10:47:48.261
199, 5099.89, -187500.02, -187500.02, -154148.22, -187500.02, -110761.74, -187500.02, -187500.02, 0.00, 0.00, 0.00, 10:47:48.264
200, 5012.62, -187500.02, -187500.02, -154152.80, -187500.02, -110762.86, -187500.02, -187500.02, 0.00, 0.00, 0.00, 10:47:48.268
201, 4498.76, -187500.02, -187500.02, -154204.52, -187500.02, -110812.13, -187500.02, -187500.02, 0.00, 0.00, 0.00, 10:47:48.272
202, 4496.61, -187500.02, -187500.02, -154179.95, -187500.02, -110784.77, -187500.02, -187500.02, 0.00, 0.00, 0.00, 10:47:48.276
203, 4976.55, -187500.02, -187500.02, -154134.00, -187500.02, -110736.53, -187500.02, -187500.02, 0.01, -0.63, 0.77, 10:47:48.279
204, 5028.18, -187500.02, -187500.02, -154115.58, -187500.02, -110716.37, -187500.02, -187500.02, 0.00, 0.00, 0.00, 10:47:48.283
205, 4564.63, -187500.02, -187500.02, -154171.17, -187500.02, -110772.96, -187500.02, -187500.02, 0.00, 0.00, 0.00, 10:47:48.288
206, 4505.69, -187500.02, -187500.02, -154215.28, -187500.02, -110815.85, -187500.02, -187500.02, 0.00, 0.00, 0.00, 10:47:48.293
207, 4881.75, -187500.02, -187500.02, -154145.89, -187500.02, -110744.75, -187500.02, -187500.02, 0.00, 0.00, 0.00, 10:47:48.296
208, 5041.46, -187500.02, -187500.02, -154134.70, -187500.02, -110730.20, -187500.02, -187500.02, 0.00, 0.00, 0.00, 10:47:48.300
209, 4597.62, -187500.02, -187500.02, -154188.47, -187500.02, -110781.08, -187500.02, -187500.02, 0.00, 0.00, 0.00, 10:47:48.304
210, 4407.25, -187500.02, -187500.02, -154210.00, -187500.02, -110799.70, -187500.02, -187500.02, 0.00, 0.00, 0.00, 10:47:48.307
211, 4806.36, -187500.02, -187500.02, -154194.22, -187500.02, -110784.09, -187500.02, -187500.02, 0.00, 0.00, 0.00, 10:47:48.312
212, 5014.37, -187500.02, -187500.02, -154146.92, -187500.02, -110734.43, -187500.02, -187500.02, 0.00, 0.00, 0.00, 10:47:48.317
213, 4654.97, -187500.02, -187500.02, -154213.83, -187500.02, -110801.04, -187500.02, -187500.02, 0.01, -0.61, 0.80, 10:47:48.320
214, 4274.86, -187500.02, -187500.02, -154220.14, -187500.02, -110807.41, -187500.02, -187500.02, 0.00, 0.00, 0.00, 10:47:48.324
215, 4599.90, -187500.02, -187500.02, -154166.22, -187500.02, -110748.73, -187500.02, -187500.02, 0.00, 0.00, 0.00, 10:47:48.328
216, 4989.38, -187500.02, -187500.02, -154138.14, -187500.02, -110718.73, -187500.02, -187500.02, 0.00, 0.00, 0.00, 10:47:48.332
217, 4800.69, -187500.02, -187500.02, -154232.11, -187500.02, -110811.36, -187500.02, -187500.02, 0.00, 0.00, 0.00, 10:47:48.335
218, 4362.03, -187500.02, -187500.02, -154270.14, -187500.02, -110847.70, -187500.02, -187500.02, 0.00, 0.00, 0.00, 10:47:48.339
219, 4600.95, -187500.02, -187500.02, -154264.89, -187500.02, -110840.60, -187500.02, -187500.02, 0.00, 0.00, 0.00, 10:47:48.345
220, 4989.65, -187500.02, -187500.02, -154247.45, -187500.02, -110819.32, -187500.02, -187500.02, 0.00, 0.00, 0.00, 10:47:48.349
221, 4792.46, -187500.02, -187500.02, -154253.36, -187500.02, -110823.77, -187500.02, -187500.02, 0.00, 0.00, 0.00, 10:47:48.352
222, 4319.45, -187500.02, -187500.02, -154290.84, -187500.02, -110863.11, -187500.02, -187500.02, 0.00, 0.00, 0.00, 10:47:48.356
223, 4455.33, -187500.02, -187500.02, -154267.42, -187500.02, -110838.97, -187500.02, -187500.02, 0.00, -0.63, 0.79, 10:47:48.359
224, 4901.42, -187500.02, -187500.02, -154238.78, -187500.02, -110808.37, -187500.02, -187500.02, 0.00, 0.00, 0.00, 10:47:48.364
225, 4836.72, -187500.02, -187500.02, -154249.97, -187500.02, -110818.18, -187500.02, -187500.02, 0.00, 0.00, 0.00, 10:47:48.368
226, 4307.29, -187500.02, -187500.02, -154282.06, -187500.02, -110849.09, -187500.02, -187500.02, 0.00, 0.00, 0.00, 10:47:48.372
227, 4256.91, -187500.02, -187500.02, -154236.78, -187500.02, -110799.74, -187500.02, -187500.02, 0.00, 0.00, 0.00, 10:47:48.376
228, 4766.38, -187500.02, -187500.02, -154203.25, -187500.02, -110763.59, -187500.02, -187500.02, 0.00, 0.00, 0.00, 10:47:48.380
229, 4876.10, -187500.02, -187500.02, -154224.08, -187500.02, -110784.56, -187500.02, -187500.02, 0.00, 0.00, 0.00, 10:47:48.384
230, 4418.09, -187500.02, -187500.02, -154301.95, -187500.02, -110862.95, -187500.02, -187500.02, 0.00, 0.00, 0.00, 10:47:48.387
231, 4231.39, -187500.02, -187500.02, -154295.19, -187500.02, -110855.98, -187500.02, -187500.02, 0.00, 0.00, 0.00, 10:47:48.391
232, 4604.37, -187500.02, -187500.02, -154225.27, -187500.02, -110782.59, -187500.02, -187500.02, 0.00, 0.00, 0.00, 10:47:48.396
233, 4758.46, -187500.02, -187500.02, -154151.61, -187500.02, -110705.86, -187500.02, -187500.02, 0.01, -0.62, 0.78, 10:47:48.401
234, 4446.21, -187500.02, -187500.02, -154235.86, -187500.02, -110788.59, -187500.02, -187500.02, 0.00, 0.00, 0.00, 10:47:48.405
235, 4282.97, -187500.02, -187500.02, -154314.20, -187500.02, -110867.48, -187500.02, -187500.02, 0.00, 0.00, 0.00, 10:47:48.407
236, 4657.30, -187500.02, -187500.02, -154323.80, -187500.02, -110875.13, -187500.02, -187500.02, 0.00, 0.00, 0.00, 10:47:48.412
237, 4911.04, -187500.02, -187500.02, -154299.81, -187500.02, -110846.21, -187500.02, -187500.02, 0.00, 0.00, 0.00, 10:47:48.415
238, 4542.17, -187500.02, -187500.02, -154325.42, -187500.02, -110870.55, -187500.02, -187500.02, 0.00, 0.00, 0.00, 10:47:48.419
239, 4148.91, -187500.02, -187500.02, -154336.59, -187500.02, -110881.88, -187500.02, -187500.02, 0.00, 0.00, 0.00, 10:47:48.424
240, 4449.09, -187500.02, -187500.02, -154296.48, -187500.02, -110841.02, -187500.02, -187500.02, 0.00, 0.00, 0.00, 10:47:48.428
241, 4829.92, -187500.02, -187500.02, -154248.84, -187500.02, -110793.32, -187500.02, -187500.02, 0.00, 0.00, 0.00, 10:47:48.433
242, 4663.58, -187500.02, -187500.02, -154325.98, -187500.02, -110870.70, -187500.02, -187500.02, 0.01, -0.62, 0.79, 10:47:48.435
243, 4189.75, -187500.02, -187500.02, -154368.05, -187500.02, -110910.98, -187500.02, -187500.02, 0.00, 0.00, 0.00, 10:47:48.439
244, 4351.84, -187500.02, -187500.02, -154335.42, -187500.02, -110872.98, -187500.02, -187500.02, 0.00, 0.00, 0.00, 10:47:48.444
245, 4708.37, -187500.02, -187500.02, -154252.52, -187500.02, -110787.20, -187500.02, -187500.02, 0.00, 0.00, 0.00, 10:47:48.447
246, 4578.62, -187500.02, -187500.02, -154233.47, -187500.02, -110765.50, -187500.02, -187500.02, 0.00, 0.00, 0.00, 10:47:48.451
247, 4186.44, -187500.02, -187500.02, -154324.58, -187500.02, -110857.25, -187500.02, -187500.02, 0.00, 0.00, 0.00, 10:47:48.456
248, 4250.54, -187500.02, -187500.02, -154334.47, -187500.02, -110866.93, -187500.02, -187500.02, 0.00, 0.00, 0.00, 10:47:48.460
249, 4679.85, -187500.02, -187500.02, -154279.53, -187500.02, -110809.20, -187500.02, -187500.02, 0.00, 0.00, 0.00, 10:47:48.464
250, 4650.75, -187500.02, -187500.02, -154262.70, -187500.02, -110791.11, -187500.02, -187500.02, 0.00, 0.00, 0.00, 10:47:48.467
251, 4212.50, -187500.02, -187500.02, -154321.83, -187500.02, -110850.73, -187500.02, -187500.02, 0.00, 0.00, 0.00, 10:47:48.472
252, 4276.54, -187500.02, -187500.02, -154374.98, -187500.02, -110906.05, -187500.02, -187500.02, 0.00, -0.60, 0.79, 10:47:48.476
253, 4676.01, -187500.02, -187500.02, -154332.11, -187500.02, -110864.45, -187500.02, -187500.02, 0.00, 0.00, 0.00, 10:47:48.479
254, 4699.66, -187500.02, -187500.02, -154264.02, -187500.02, -110795.49, -187500.02, -187500.02, 0.00, 0.00, 0.00, 10:47:48.485
255, 4234.85, -187500.02, -187500.02, -154303.91, -187500.02, -110834.45, -187500.02, -187500.02, 0.00, 0.00, 0.00, 10:47:48.489
0, 4069.18, -187500.02, -187500.02, -154298.88, -187500.02, -110829.53, -187500.02, -187500.02, 0.00, 0.00, 0.00, 10:47:48.492
1, 4528.08, -187500.02, -187500.02, -154265.41, -187500.02, -110794.46, -187500.02, -187500.02, 0.00, 0.00, 0.00, 10:47:48.495
2, 4793.20, -187500.02, -187500.02, -154279.17, -187500.02, -110806.02, -187500.02, -187500.02, 0.00, 0.00, 0.00, 10:47:48.500
3, 4361.56, -187500.02, -187500.02, -154324.95, -187500.02, -110851.38, -187500.02, -187500.02, 0.00, 0.00, 0.00, 10:47:48.504
4, 4082.64, -187500.02, -187500.02, -154351.08, -187500.02, -110876.88, -187500.02, -187500.02, 0.00, 0.00, 0.00, 10:47:48.507
5, 4428.69, -187500.02, -187500.02, -154324.86, -187500.02, -110850.39, -187500.02, -187500.02, 0.00, 0.00, 0.00, 10:47:48.512
6, 4689.31, -187500.02, -187500.02, -154264.30, -187500.02, -110787.96, -187500.02, -187500.02, 0.00, -0.63, 0.79, 10:47:48.517
7, 4432.02, -187500.02, -187500.02, -154339.75, -187500.02, -110863.80, -187500.02, -187500.02, 0.00, 0.00, 0.00, 10:47:48.520
8, 4050.45, -187500.02, -187500.02, -154365.33, -187500.02, -110888.09, -187500.02, -187500.02, 0.00, 0.00, 0.00, 10:47:48.523
9, 4312.14, -187500.02, -187500.02, -154321.27, -187500.02, -110838.52, -187500.02, -187500.02, 0.00, 0.00, 0.00, 10:47:48.527
10, 4646.15, -187500.02, -187500.02, -154237.92, -187500.02, -110750.63, -187500.02, -187500.02, 0.00, 0.00, 0.00, 10:47:48.532
11, 4474.51, -187500.02, -187500.02, -154261.34, -187500.02, -110774.15, -187500.02, -187500.02, 0.00, 0.00, 0.00, 10:47:48.536
12, 4118.44, -187500.02, -187500.02, -154358.80, -187500.02, -110874.62, -187500.02, -187500.02, 0.00, 0.00, 0.00, 10:47:48.539
13, 4193.08, -187500.02, -187500.02, -154280.78, -187500.02, -110792.68, -187500.02, -187500.02, 0.00, 0.00, 0.00, 10:47:48.543
14, 4604.28, -187500.02, -187500.02, -154218.84, -187500.02, -110725.80, -187500.02, -187500.02, 0.00, 0.00, 0.00, 10:47:48.546
15, 4506.47, -187500.02, -187500.02, -154224.08, -187500.02, -110728.02, -187500.02, -187500.02, 0.00, 0.00, 0.00, 10:47:48.551
16, 4124.08, -187500.02, -187500.02, -154336.48, -187500.02, -110841.88, -187500.02, -187500.02, 0.01, -0.64, 0.79, 10:47:48.555
17, 4137.58, -187500.02, -187500.02, -154303.92, -187500.02, -110810.36, -187500.02, -187500.02, 0.00, 0.00, 0.00, 10:47:48.559
18, 4591.94, -187500.02, -187500.02, -154273.20, -187500.02, -110776.36, -187500.02, -187500.02, 0.00, 0.00, 0.00, 10:47:48.564
19, 4574.98, -187500.02, -187500.02, -154269.34, -187500.02, -110768.36, -187500.02, -187500.02, 0.00, 0.00, 0.00, 10:47:48.568
20, 4083.22, -187500.02, -187500.02, -154309.63, -187500.02, -110808.95, -187500.02, -187500.02, 0.00, 0.00, 0.00, 10:47:48.570
21, 4030.18, -187500.02, -187500.02, -154282.83, -187500.02, -110780.98, -187500.02, -187500.02, 0.00, 0.00, 0.00, 10:47:48.575
22, 4540.78, -187500.02, -187500.02, -154270.61, -187500.02, -110767.20, -187500.02, -187500.02, 0.00, 0.00, 0.00, 10:47:48.579
23, 4615.25, -187500.02, -187500.02, -154242.63, -187500.02, -110739.48, -187500.02, -187500.02, 0.00, 0.00, 0.00, 10:47:48.584
24, 4214.56, -187500.02, -187500.02, -154305.69, -187500.02, -110802.82, -187500.02, -187500.02, 0.00, 0.00, 0.00, 10:47:48.588
25, 4073.45, -187500.02, -187500.02, -154361.34, -187500.02, -110860.00, -187500.02, -187500.02, -0.00, -0.62, 0.80, 10:47:48.591
26, 4405.26, -187500.02, -187500.02, -154282.67, -187500.02, -110780.20, -187500.02, -187500.02, 0.00, 0.00, 0.00, 10:47:48.596
27, 4625.56, -187500.02, -187500.02, -154221.83, -187500.02, -110717.44, -187500.02, -187500.02, 0.00, 0.00, 0.00, 10:47:48.599
28, 4283.24, -187500.02, -187500.02, -154280.94, -187500.02, -110776.00, -187500.02, -187500.02, 0.00, 0.00, 0.00, 10:47:48.603
29, 3961.15, -187500.02, -187500.02, -154301.38, -187500.02, -110796.43, -187500.02, -187500.02, 0.00, 0.00, 0.00, 10:47:48.606
30, 4270.55, -187500.02, -187500.02, -154239.75, -187500.02, -110730.70, -187500.02, -187500.02, 0.00, 0.00, 0.00, 10:47:48.612
31, 4651.04, -187500.02, -187500.02, -154248.17, -187500.02, -110733.60, -187500.02, -187500.02, 0.00, 0.00, 0.00, 10:47:48.616
32, 4298.55, -187500.02, -187500.02, -154274.11, -187500.02, -110759.13, -187500.02, -187500.02, 0.00, 0.00, 0.00, 10:47:48.620
33, 3940.52, -187500.02, -187500.02, -154296.91, -187500.02, -110780.59, -187500.02, -187500.02, 0.00, 0.00, 0.00, 10:47:48.624
34, 4251.10, -187500.02, -187500.02, -154303.25, -187500.02, -110786.28, -187500.02, -187500.02, 0.00, 0.00, 0.00, 10:47:48.627
35, 4631.24, -187500.02, -187500.02, -154273.66, -187500.02, -110755.15, -187500.02, -187500.02, 0.00, -0.61, 0.80, 10:47:48.631
36, 4415.14, -187500.02, -187500.02, -154291.41, -187500.02, -110770.37, -187500.02, -187500.02, 0.00, 0.00, 0.00, 10:47:48.634
37, 3966.74, -187500.02, -187500.02, -154345.81, -187500.02, -110824.84, -187500.02, -187500.02, 0.00, 0.00, 0.00, 10:47:48.639
38, 4081.61, -187500.02, -187500.02, -154306.02, -187500.02, -110784.14, -187500.02, -187500.02, 0.00, 0.00, 0.00, 10:47:48.644
39, 4531.50, -187500.02, -187500.02, -154237.11, -187500.02, -110716.50, -187500.02, -187500.02, 0.00, 0.00, 0.00, 10:47:48.648
40, 4544.09, -187500.02, -187500.02, -154265.97, -187500.02, -110743.75, -187500.02, -187500.02, 0.00, 0.00, 0.00, 10:47:48.651
41, 4170.30, -187500.02, -187500.02, -154399.91, -187500.02, -110879.78, -187500.02, -187500.02, 0.00, 0.00, 0.00, 10:47:48.655
42, 4123.85, -187500.02, -187500.02, -154382.83, -187500.02, -110864.60, -187500.02, -187500.02, 0.00, 0.00, 0.00, 10:47:48.659
43, 4555.46, -187500.02, -187500.02, -154325.88, -187500.02, -110805.62, -187500.02, -187500.02, 0.00, 0.00, 0.00, 10:47:48.663
44, 4601.78, -187500.02, -187500.02, -154343.44, -187500.02, -110822.20, -187500.02, -187500.02, 0.00, 0.00, 0.00, 10:47:48.667
45, 4067.68, -187500.02, -187500.02, -154367.17, -187500.02, -110844.02, -187500.02, -187500.02, 0.00, -0.61, 0.79, 10:47:48.672
46, 3933.77, -187500.02, -187500.02, -154324.08, -187500.02, -110799.18, -187500.02, -187500.02, 0.00, 0.00, 0.00, 10:47:48.676
47, 4450.93, -187500.02, -187500.02, -154308.45, -187500.02, -110782.15, -187500.02, -187500.02, 0.00, 0.00, 0.00, 10:47:48.679
48, 4636.29, -187500.02, -187500.02, -154319.61, -187500.02, -110791.29, -187500.02, -187500.02, 0.00, 0.00, 0.00, 10:47:48.683
49, 4157.85, -187500.02, -187500.02, -154360.72, -187500.02, -110834.16, -187500.02, -187500.02, 0.00, 0.00, 0.00, 10:47:48.687
50, 3913.77, -187500.02, -187500.02, -154341.97, -187500.02, -110814.52, -187500.02, -187500.02, 0.00, 0.00, 0.00, 10:47:48.691
51, 4326.58, -187500.02, -187500.02, -154321.67, -187500.02, -110788.85, -187500.02, -187500.02, 0.00, 0.00, 0.00, 10:47:48.695
52, 4565.52, -187500.02, -187500.02, -154292.28, -187500.02, -110756.17, -187500.02, -187500.02, 0.00, 0.00, 0.00, 10:47:48.700
53, 4241.78, -187500.02, -187500.02, -154339.28, -187500.02, -110804.48, -187500.02, -187500.02, 0.00, 0.00, 0.00, 10:47:48.704
54, 3956.06, -187500.02, -187500.02, -154373.02, -187500.02, -110840.20, -187500.02, -187500.02, 0.00, 0.00, 0.00, 10:47:48.707
55, 4287.71, -187500.02, -187500.02, -154333.30, -187500.02, -110798.45, -187500.02, -187500.02, -0.00, -0.60, 0.80, 10:47:48.711
56, 4657.37, -187500.02, -187500.02, -154332.23, -187500.02, -110794.30, -187500.02, -187500.02, 0.00, 0.00, 0.00, 10:47:48.715
57, 4304.10, -187500.02, -187500.02, -154342.02, -187500.02, -110804.26, -187500.02, -187500.02, 0.00, 0.00, 0.00, 10:47:48.719
58, 3883.46, -187500.02, -187500.02, -154336.75, -187500.02, -110795.34, -187500.02, -187500.02, 0.00, 0.00, 0.00, 10:47:48.722
59, 4166.77, -187500.02, -187500.02, -154319.14, -187500.02, -110774.62, -187500.02, -187500.02, 0.00, 0.00, 0.00, 10:47:48.727
60, 4616.82, -187500.02, -187500.02, -154315.25, -187500.02, -110769.70, -187500.02, -187500.02, 0.00, 0.00, 0.00, 10:47:48.732
61, 4410.13, -187500.02, -187500.02, -154350.64, -187500.02, -110807.34, -187500.02, -187500.02, 0.00, 0.00, 0.00, 10:47:48.735
62, 3916.56, -187500.02, -187500.02, -154373.30, -187500.02, -110832.44, -187500.02, -187500.02, 0.00, 0.00, 0.00, 10:47:48.739
63, 4044.68, -187500.02, -187500.02, -154355.52, -187500.02, -110813.40, -187500.02, -187500.02, 0.00, 0.00, 0.00, 10:47:48.743
64, 4466.86, -187500.02, -187500.02, -154307.39, -187500.02, -110764.27, -187500.02, -187500.02, 0.00, 0.00, 0.00, 10:47:48.747
65, 4388.59, -187500.02, -187500.02, -154278.80, -187500.02, -110735.84, -187500.02, -187500.02, 0.00, -0.63, 0.78, 10:47:48.751
66, 3968.19, -187500.02, -187500.02, -154347.31, -187500.02, -110802.60, -187500.02, -187500.02, 0.00, 0.00, 0.00, 10:47:48.756
67, 4003.62, -187500.02, -187500.02, -154368.66, -187500.02, -110823.08, -187500.02, -187500.02, 0.00, 0.00, 0.00, 10:47:48.759
68, 4374.08, -187500.02, -187500.02, -154279.47, -187500.02, -110729.84, -187500.02, -187500.02, 0.00, 0.00, 0.00, 10:47:48.763
69, 4476.88, -187500.02, -187500.02, -154279.77, -187500.02, -110725.64, -187500.02, -187500.02, 0.00, 0.00, 0.00, 10:47:48.767
70, 4048.82, -187500.02, -187500.02, -154360.69, -187500.02, -110806.18, -187500.02, -187500.02, 0.00, 0.00, 0.00, 10:47:48.771
71, 3908.63, -187500.02, -187500.02, -154352.73, -187500.02, -110797.30, -187500.02, -187500.02, 0.00, 0.00, 0.00, 10:47:48.775
72, 4326.29, -187500.02, -187500.02, -154283.33, -187500.02, -110725.35, -187500.02, -187500.02, 0.00, 0.00, 0.00, 10:47:48.779
73, 4580.27, -187500.02, -187500.02, -154314.41, -187500.02, -110755.57, -187500.02, -187500.02, 0.00, 0.00, 0.00, 10:47:48.784
74, 4151.08, -187500.02, -187500.02, -154386.47, -187500.02, -110827.84, -187500.02, -187500.02, 0.01, -0.61, 0.81, 10:47:48.787
75, 3902.57, -187500.02, -187500.02, -154393.86, -187500.02, -110832.15, -187500.02, -187500.02, 0.00, 0.00, 0.00, 10:47:48.791
76, 4208.79, -187500.02, -187500.02, -154314.78, -187500.02, -110750.09, -187500.02, -187500.02, 0.00, 0.00, 0.00, 10:47:48.795
77, 4451.98, -187500.02, -187500.02, -154246.67, -187500.02, -110680.85, -187500.02, -187500.02, 0.00, 0.00, 0.00, 10:47:48.799
78, 4205.15, -187500.02, -187500.02, -154330.31, -187500.02, -110762.55, -187500.02, -187500.02, 0.00, 0.00, 0.00, 10:47:48.803
79, 3895.17, -187500.02, -187500.02, -154405.89, -187500.02, -110839.26, -187500.02, -187500.02, 0.00, 0.00, 0.00, 10:47:48.807
80, 4115.38, -187500.02, -187500.02, -154334.23, -187500.02, -110766.63, -187500.02, -187500.02, 0.00, 0.00, 0.00, 10:47:48.811
81, 4484.72, -187500.02, -187500.02, -154295.36, -187500.02, -110722.58, -187500.02, -187500.02, 0.00, 0.00, 0.00, 10:47:48.815
82, 4245.15, -187500.02, -187500.02, -154345.58, -187500.02, -110770.21, -187500.02, -187500.02, 0.00, 0.00, 0.00, 10:47:48.818
83, 3821.48, -187500.02, -187500.02, -154351.53, -187500.02, -110773.66, -187500.02, -187500.02, 0.00, 0.00, 0.00, 10:47:48.823
84, 4088.78, -187500.02, -187500.02, -154334.56, -187500.02, -110752.27, -187500.02, -187500.02, 0.01, -0.61, 0.81, 10:47:48.827
85, 4573.79, -187500.02, -187500.02, -154335.42, -187500.02, -110750.92, -187500.02, -187500.02, 0.00, 0.00, 0.00, 10:47:48.831
86, 4447.19, -187500.02, -187500.02, -154378.28, -187500.02, -110792.32, -187500.02, -187500.02, 0.00, 0.00, 0.00, 10:47:48.835
87, 3986.48, -187500.02, -187500.02, -154451.70, -187500.02, -110866.13, -187500.02, -187500.02, 0.00, 0.00, 0.00, 10:47:48.840
88, 4052.66, -187500.02, -187500.02, -154445.45, -187500.02, -110858.68, -187500.02, -187500.02, 0.00, 0.00, 0.00, 10:47:48.843
89, 4425.71, -187500.02, -187500.02, -154344.94, -187500.02, -110754.12, -187500.02, -187500.02, 0.00, 0.00, 0.00, 10:47:48.846
90, 4387.96, -187500.02, -187500.02, -154314.56, -187500.02, -110720.88, -187500.02, -187500.02, 0.00, 0.00, 0.00, 10:47:48.851
91, 3981.83, -187500.02, -187500.02, -154392.20, -187500.02, -110798.63, -187500.02, -187500.02, 0.00, 0.00, 0.00, 10:47:48.855
92, 3966.07, -187500.02, -187500.02, -154425.05, -187500.02, -110834.34, -187500.02, -187500.02, 0.00, 0.00, 0.00, 10:47:48.860
93, 4345.13, -187500.02, -187500.02, -154339.22, -187500.02, -110746.95, -187500.02, -187500.02, 0.00, 0.00, 0.00, 10:47:48.863
94, 4450.43, -187500.02, -187500.02, -154328.52, -187500.02, -110733.76, -187500.02, -187500.02, 0.02, -0.62, 0.80, 10:47:48.867
95, 3996.34, -187500.02, -187500.02, -154393.27, -187500.02, -110799.18, -187500.02, -187500.02, 0.00, 0.00, 0.00, 10:47:48.870
96, 3811.37, -187500.02, -187500.02, -154381.19, -187500.02, -110788.48, -187500.02, -187500.02, 0.00, 0.00, 0.00, 10:47:48.874
97, 4235.61, -187500.02, -187500.02, -154305.53, -187500.02, -110708.34, -187500.02, -187500.02, 0.00, 0.00, 0.00, 10:47:48.879
98, 4518.23, -187500.02, -187500.02, -154319.28, -187500.02, -110716.66, -187500.02, -187500.02, 0.00, 0.00, 0.00, 10:47:48.883
99, 4128.10, -187500.02, -187500.02, -154394.94, -187500.02, -110792.84, -187500.02, -187500.02, 0.00, 0.00, 0.00, 10:47:48.888
100, 3801.96, -187500.02, -187500.02, -154393.59, -187500.02, -110790.80, -187500.02, -187500.02, 0.00, 0.00, 0.00, 10:47:48.891
101, 4145.80, -187500.02, -187500.02, -154313.58, -187500.02, -110705.93, -187500.02, -187500.02, 0.00, 0.00, 0.00, 10:47:48.894
102, 4514.00, -187500.02, -187500.02, -154307.47, -187500.02, -110695.76, -187500.02, -187500.02, 0.00, 0.00, 0.00, 10:47:48.898
103, 4215.87, -187500.02, -187500.02, -154377.48, -187500.02, -110764.31, -187500.02, -187500.02, 0.00, 0.00, 0.00, 10:47:48.902
104, 3817.66, -187500.02, -187500.02, -154405.05, -187500.02, -110791.47, -187500.02, -187500.02, 0.02, -0.61, 0.78, 10:47:48.906
105, 4114.00, -187500.02, -187500.02, -154350.09, -187500.02, -110731.74, -187500.02, -187500.02, 0.00, 0.00, 0.00, 10:47:48.911
106, 4579.27, -187500.02, -187500.02, -154354.19, -187500.02, -110731.03, -187500.02, -187500.02, 0.00, 0.00, 0.00, 10:47:48.915
107, 4365.63, -187500.02, -187500.02, -154433.20, -187500.02, -110811.38, -187500.02, -187500.02, 0.00, 0.00, 0.00, 10:47:48.919
108, 3879.21, -187500.02, -187500.02, -154454.84, -187500.02, -110832.84, -187500.02, -187500.02, 0.00, 0.00, 0.00, 10:47:48.922
109, 4072.89, -187500.02, -187500.02, -154452.20, -187500.02, -110830.16, -187500.02, -187500.02, 0.00, 0.00, 0.00, 10:47:48.927
110, 4432.51, -187500.02, -187500.02, -154363.64, -187500.02, -110742.45, -187500.02, -187500.02, 0.00, 0.00, 0.00, 10:47:48.930
111, 4321.51, -187500.02, -187500.02, -154366.47, -187500.02, -110743.10, -187500.02, -187500.02, 0.00, 0.00, 0.00, 10:47:48.935
112, 3889.29, -187500.02, -187500.02, -154439.86, -187500.02, -110815.38, -187500.02, -187500.02, 0.00, 0.00, 0.00, 10:47:48.939
113, 3945.04, -187500.02, -187500.02, -154402.97, -187500.02, -110775.82, -187500.02, -187500.02, 0.00, 0.00, 0.00, 10:47:48.944
114, 4420.26, -187500.02, -187500.02, -154365.64, -187500.02, -110732.04, -187500.02, -187500.02, 0.01, -0.62, 0.77, 10:47:48.948
115, 4407.34, -187500.02, -187500.02, -154371.30, -187500.02, -110733.71, -187500.02, -187500.02, 0.00, 0.00, 0.00, 10:47:48.950
116, 3882.74, -187500.02, -187500.02, -154406.66, -187500.02, -110768.47, -187500.02, -187500.02, 0.00, 0.00, 0.00, 10:47:48.954
117, 3836.21, -187500.02, -187500.02, -154395.50, -187500.02, -110756.65, -187500.02, -187500.02, 0.00, 0.00, 0.00, 10:47:48.958
118, 4294.19, -187500.02, -187500.02, -154335.08, -187500.02, -110693.86, -187500.02, -187500.02, 0.00, 0.00, 0.00, 10:47:48.962
119, 4514.83, -187500.02, -187500.02, -154357.34, -187500.02, -110713.98, -187500.02, -187500.02, 0.00, 0.00, 0.00, 10:47:48.967
120, 4131.23, -187500.02, -187500.02, -154490.20, -187500.02, -110847.13, -187500.02, -187500.02, 0.00, 0.00, 0.00, 10:47:48.971
121, 3912.99, -187500.02, -187500.02, -154495.52, -187500.02, -110851.06, -187500.02, -187500.02, 0.00, 0.00, 0.00, 10:47:48.975
122, 4278.39, -187500.02, -187500.02, -154433.98, -187500.02, -110786.09, -187500.02, -187500.02, 0.00, 0.00, 0.00, 10:47:48.979
123, 4465.05, -187500.02, -187500.02, -154372.97, -187500.02, -110722.63, -187500.02, -187500.02, 0.01, -0.62, 0.80, 10:47:48.982
124, 4113.79, -187500.02, -187500.02, -154435.27, -187500.02, -110782.44, -187500.02, -187500.02, 0.00, 0.00, 0.00, 10:47:48.986
125, 3867.34, -187500.02, -187500.02, -154464.61, -187500.02, -110811.54, -187500.02, -187500.02, 0.00, 0.00, 0.00, 10:47:48.990
126, 4222.38, -187500.02, -187500.02, -154443.38, -187500.02, -110788.72, -187500.02, -187500.02, 0.00, 0.00, 0.00, 10:47:48.996
127, 4502.65, -187500.02, -187500.02, -154401.86, -187500.02, -110744.13, -187500.02, -187500.02, 0.00, 0.00, 0.00, 10:47:48.999
128, 4136.44, -187500.02, -187500.02, -154401.64, -187500.02, -110741.11, -187500.02, -187500.02, 0.00, 0.00, 0.00, 10:47:49.002
129, 3789.63, -187500.02, -187500.02, -154436.67, -187500.02, -110775.78, -187500.02, -187500.02, 0.00, 0.00, 0.00, 10:47:49.006
130, 4042.16, -187500.02, -187500.02, -154399.16, -187500.02, -110737.00, -187500.02, -187500.02, 0.00, 0.00, 0.00, 10:47:49.010
131, 4468.74, -187500.02, -187500.02, -154359.38, -187500.02, -110694.55, -187500.02, -187500.02, 0.00, 0.00, 0.00, 10:47:49.014
132, 4339.64, -187500.02, -187500.02, -154453.55, -187500.02, -110787.70, -187500.02, -187500.02, 0.00, 0.00, 0.00, 10:47:49.018
133, 3872.04, -187500.02, -187500.02, -154498.94, -187500.02, -110831.50, -187500.02, -187500.02, -0.01, -0.62, 0.80, 10:47:49.024
134, 3984.82, -187500.02, -187500.02, -154437.73, -187500.02, -110766.77, -187500.02, -187500.02, 0.00, 0.00, 0.00, 10:47:49.027
135, 4430.18, -187500.02, -187500.02, -154372.47, -187500.02, -110696.66, -187500.02, -187500.02, 0.00, 0.00, 0.00, 10:47:49.031
136, 4400.48, -187500.02, -187500.02, -154396.41, -187500.02, -110719.97, -187500.02, -187500.02, 0.00, 0.00, 0.00, 10:47:49.034
137, 4021.17, -187500.02, -187500.02, -154496.09, -187500.02, -110822.27, -187500.02, -187500.02, 0.00, 0.00, 0.00, 10:47:49.038
138, 4033.71, -187500.02, -187500.02, -154505.16, -187500.02, -110833.60, -187500.02, -187500.02, 0.00, 0.00, 0.00, 10:47:49.043
139, 4411.74, -187500.02, -187500.02, -154409.36, -187500.02, -110733.80, -187500.02, -187500.02, 0.00, 0.00, 0.00, 10:47:49.046
140, 4426.63, -187500.02, -187500.02, -154385.55, -187500.02, -110705.30, -187500.02, -187500.02, 0.00, 0.00, 0.00, 10:47:49.051
141, 3957.47, -187500.02, -187500.02, -154447.47, -187500.02, -110766.57, -187500.02, -187500.02, 0.00, 0.00, 0.00, 10:47:49.055
142, 3882.36, -187500.02, -187500.02, -154442.91, -187500.02, -110760.53, -187500.02, -187500.02, 0.00, 0.00, 0.00, 10:47:49.058
143, 4350.57, -187500.02, -187500.02, -154392.70, -187500.02, -110708.66, -187500.02, -187500.02, 0.00, -0.65, 0.77, 10:47:49.062
144, 4613.40, -187500.02, -187500.02, -154451.75, -187500.02, -110766.91, -187500.02, -187500.02, 0.00, 0.00, 0.00, 10:47:49.066
145, 4106.42, -187500.02, -187500.02, -154511.14, -187500.02, -110826.78, -187500.02, -187500.02, 0.00, 0.00, 0.00, 10:47:49.071
146, 3854.94, -187500.02, -187500.02, -154473.45, -187500.02, -110785.45, -187500.02, -187500.02, 0.00, 0.00, 0.00, 10:47:49.074
147, 4303.47, -187500.02, -187500.02, -154476.05, -187500.02, -110785.91, -187500.02, -187500.02, 0.00, 0.00, 0.00, 10:47:49.078
148, 4537.43, -187500.02, -187500.02, -154442.17, -187500.02, -110752.45, -187500.02, -187500.02, 0.00, 0.00, 0.00, 10:47:49.083
149, 4137.49, -187500.02, -187500.02, -154479.14, -187500.02, -110789.62, -187500.02, -187500.02, 0.00, 0.00, 0.00, 10:47:49.087
150, 3839.60, -187500.02, -187500.02, -154495.97, -187500.02, -110803.36, -187500.02, -187500.02, 0.00, 0.00, 0.00, 10:47:49.090
151, 4210.15, -187500.02, -187500.02, -154455.00, -187500.02, -110761.12, -187500.02, -187500.02, 0.00, 0.00, 0.00, 10:47:49.094
152, 4650.10, -187500.02, -187500.02, -154477.97, -187500.02, -110783.51, -187500.02, -187500.02, 0.00, 0.00, 0.00, 10:47:49.098
153, 4306.35, -187500.02, -187500.02, -154487.73, -187500.02, -110792.32, -187500.02, -187500.02, 0.01, -0.64, 0.76, 10:47:49.102
154, 3946.07, -187500.02, -187500.02, -154557.41, -187500.02, -110862.01, -187500.02, -187500.02, 0.00, 0.00, 0.00, 10:47:49.108
155, 4146.32, -187500.02, -187500.02, -154523.13, -187500.02, -110824.21, -187500.02, -187500.02, 0.00, 0.00, 0.00, 10:47:49.111
156, 4577.61, -187500.02, -187500.02, -154500.19, -187500.02, -110797.23, -187500.02, -187500.02, 0.00, 0.00, 0.00, 10:47:49.113
157, 4379.49, -187500.02, -187500.02, -154513.05, -187500.02, -110809.13, -187500.02, -187500.02, 0.00, 0.00, 0.00, 10:47:49.118
158, 3921.79, -187500.02, -187500.02, -154546.81, -187500.02, -110844.84, -187500.02, -187500.02, 0.00, 0.00, 0.00, 10:47:49.123
159, 4119.67, -187500.02, -187500.02, -154575.86, -187500.02, -110873.74, -187500.02, -187500.02, 0.00, 0.00, 0.00, 10:47:49.126
160, 4521.38, -187500.02, -187500.02, -154524.64, -187500.02, -110822.11, -187500.02, -187500.02, 0.00, 0.00, 0.00, 10:47:49.130
161, 4428.31, -187500.02, -187500.02, -154513.73, -187500.02, -110808.28, -187500.02, -187500.02, 0.00, 0.00, 0.00, 10:47:49.135
162, 3925.41, -187500.02, -187500.02, -154557.70, -187500.02, -110850.63, -187500.02, -187500.02, 0.01, -0.63, 0.77, 10:47:49.139
163, 3899.89, -187500.02, -187500.02, -154517.58, -187500.02, -110809.71, -187500.02, -187500.02, 0.00, 0.00, 0.00, 10:47:49.141
164, 4381.43, -187500.02, -187500.02, -154455.78, -187500.02, -110745.45, -187500.02, -187500.02, 0.00, 0.00, 0.00, 10:47:49.146
165, 4482.11, -187500.02, -187500.02, -154470.73, -187500.02, -110759.77, -187500.02, -187500.02, 0.00, 0.00, 0.00, 10:47:49.151
166, 4031.20, -187500.02, -187500.02, -154554.63, -187500.02, -110846.01, -187500.02, -187500.02, 0.00, 0.00, 0.00, 10:47:49.154
167, 3859.70, -187500.02, -187500.02, -154532.61, -187500.02, -110823.05, -187500.02, -187500.02, 0.00, 0.00, 0.00, 10:47:49.158
168, 4304.74, -187500.02, -187500.02, -154468.67, -187500.02, -110755.33, -187500.02, -187500.02, 0.00, 0.00, 0.00, 10:47:49.163
169, 4547.57, -187500.02, -187500.02, -154492.38, -187500.02, -110777.14, -187500.02, -187500.02, 0.00, 0.00, 0.00, 10:47:49.166
170, 4109.39, -187500.02, -187500.02, -154543.89, -187500.02, -110826.12, -187500.02, -187500.02, 0.00, 0.00, 0.00, 10:47:49.170
171, 3949.11, -187500.02, -187500.02, -154607.34, -187500.02, -110888.27, -187500.02, -187500.02, 0.00, 0.00, 0.00, 10:47:49.173
172, 4326.94, -187500.02, -187500.02, -154568.55, -187500.02, -110847.23, -187500.02, -187500.02, 0.01, -0.66, 0.76, 10:47:49.178
173, 4603.61, -187500.02, -187500.02, -154553.50, -187500.02, -110828.73, -187500.02, -187500.02, 0.00, 0.00, 0.00, 10:47:49.183
174, 4194.04, -187500.02, -187500.02, -154587.88, -187500.02, -110863.55, -187500.02, -187500.02, 0.00, 0.00, 0.00, 10:47:49.186
175, 3851.18, -187500.02, -187500.02, -154616.33, -187500.02, -110890.84, -187500.02, -187500.02, 0.00, 0.00, 0.00, 10:47:49.190
176, 4153.02, -187500.02, -187500.02, -154581.80, -187500.02, -110856.67, -187500.02, -187500.02, 0.00, 0.00, 0.00, 10:47:49.195
177, 4525.98, -187500.02, -187500.02, -154559.94, -187500.02, -110835.93, -187500.02, -187500.02, 0.00, 0.00, 0.00, 10:47:49.197
178, 4273.72, -187500.02, -187500.02, -154594.50, -187500.02, -110870.82, -187500.02, -187500.02, 0.00, 0.00, 0.00, 10:47:49.201
179, 3835.51, -187500.02, -187500.02, -154629.08, -187500.02, -110905.66, -187500.02, -187500.02, 0.00, 0.00, 0.00, 10:47:49.206
180, 3986.81, -187500.02, -187500.02, -154556.98, -187500.02, -110832.59, -187500.02, -187500.02, 0.00, 0.00, 0.00, 10:47:49.211
181, 4421.26, -187500.02, -187500.02, -154511.02, -187500.02, -110787.78, -187500.02, -187500.02, 0.00, 0.00, 0.00, 10:47:49.214
182, 4262.34, -187500.02, -187500.02, -154536.41, -187500.02, -110813.77, -187500.02, -187500.02, 0.01, -0.68, 0.75, 10:47:49.219
183, 3750.47, -187500.02, -187500.02, -154539.75, -187500.02, -110816.66, -187500.02, -187500.02, 0.00, 0.00, 0.00, 10:47:49.222
184, 3894.72, -187500.02, -187500.02, -154531.34, -187500.02, -110807.79, -187500.02, -187500.02, 0.00, 0.00, 0.00, 10:47:49.226
185, 4363.73, -187500.02, -187500.02, -154472.97, -187500.02, -110748.33, -187500.02, -187500.02, 0.00, 0.00, 0.00, 10:47:49.229
186, 4392.48, -187500.02, -187500.02, -154512.86, -187500.02, -110787.70, -187500.02, -187500.02, 0.00, 0.00, 0.00, 10:47:49.234
187, 3926.15, -187500.02, -187500.02, -154588.50, -187500.02, -110862.10, -187500.02, -187500.02, 0.00, 0.00, 0.00, 10:47:49.239
188, 3914.62, -187500.02, -187500.02, -154633.16, -187500.02, -110907.59, -187500.02, -187500.02, 0.00, 0.00, 0.00, 10:47:49.243
189, 4274.79, -187500.02, -187500.02, -154537.94, -187500.02, -110811.61, -187500.02, -187500.02, 0.00, 0.00, 0.00, 10:47:49.245
190, 4389.48, -187500.02, -187500.02, -154535.48, -187500.02, -110806.73, -187500.02, -187500.02, 0.00, 0.00, 0.00, 10:47:49.249
191, 3918.64, -187500.02, -187500.02, -154576.19, -187500.02, -110849.12, -187500.02, -187500.02, 0.00, 0.00, 0.00, 10:47:49.254
192, 3794.07, -187500.02, -187500.02, -154583.34, -187500.02, -110855.91, -187500.02, -187500.02, 0.01, -0.69, 0.74, 10:47:49.257
193, 4276.49, -187500.02, -187500.02, -154573.14, -187500.02, -110843.05, -187500.02, -187500.02, 0.00, 0.00, 0.00, 10:47:49.262
194, 4466.84, -187500.02, -187500.02, -154555.88, -187500.02, -110823.63, -187500.02, -187500.02, 0.00, 0.00, 0.00, 10:47:49.267
195, 3994.64, -187500.02, -187500.02, -154590.27, -187500.02, -110857.27, -187500.02, -187500.02, 0.00, 0.00, 0.00, 10:47:49.271
196, 3700.13, -187500.02, -187500.02, -154586.16, -187500.02, -110854.19, -187500.02, -187500.02, 0.00, 0.00, 0.00, 10:47:49.273
197, 4059.59, -187500.02, -187500.02, -154532.06, -187500.02, -110797.30, -187500.02, -187500.02, 0.00, 0.00, 0.00, 10:47:49.278
198, 4424.48, -187500.02, -187500.02, -154506.89, -187500.02, -110767.55, -187500.02, -187500.02, 0.00, 0.00, 0.00, 10:47:49.282
199, 4118.11, -187500.02, -187500.02, -154574.17, -187500.02, -110835.59, -187500.02, -187500.02, 0.00, 0.00, 0.00, 10:47:49.285
200, 3732.23, -187500.02, -187500.02, -154604.16, -187500.02, -110866.73, -187500.02, -187500.02, 0.00, 0.00, 0.00, 10:47:49.289
201, 4039.47, -187500.02, -187500.02, -154592.75, -187500.02, -110854.41, -187500.02, -187500.02, 0.00, 0.00, 0.00, 10:47:49.294
202, 4363.64, -187500.02, -187500.02, -154515.55, -187500.02, -110774.62, -187500.02, -187500.02, 0.01, -0.66, 0.77, 10:47:49.299
203, 4174.66, -187500.02, -187500.02, -154547.33, -187500.02, -110802.35, -187500.02, -187500.02, 0.00, 0.00, 0.00, 10:47:49.301
204, 3762.74, -187500.02, -187500.02, -154608.38, -187500.02, -110864.70, -187500.02, -187500.02, 0.00, 0.00, 0.00, 10:47:49.306
205, 3927.31, -187500.02, -187500.02, -154550.81, -187500.02, -110806.18, -187500.02, -187500.02, 0.00, 0.00, 0.00, 10:47:49.309
206, 4445.47, -187500.02, -187500.02, -154546.59, -187500.02, -110798.73, -187500.02, -187500.02, 0.00, 0.00, 0.00, 10:47:49.314
207, 4333.27, -187500.02, -187500.02, -154579.27, -187500.02, -110831.44, -187500.02, -187500.02, 0.00, 0.00, 0.00, 10:47:49.319
208, 3798.10, -187500.02, -187500.02, -154614.41, -187500.02, -110868.25, -187500.02, -187500.02, 0.00, 0.00, 0.00, 10:47:49.323
209, 3843.96, -187500.02, -187500.02, -154589.08, -187500.02, -110840.09, -187500.02, -187500.02, 0.00, 0.00, 0.00, 10:47:49.326
210, 4299.34, -187500.02, -187500.02, -154538.59, -187500.02, -110785.66, -187500.02, -187500.02, 0.00, 0.00, 0.00, 10:47:49.330
211, 4349.60, -187500.02, -187500.02, -154560.52, -187500.02, -110806.47, -187500.02, -187500.02, 0.02, -0.67, 0.75, 10:47:49.334
212, 3870.00, -187500.02, -187500.02, -154635.31, -187500.02, -110881.46, -187500.02, -187500.02, 0.00, 0.00, 0.00, 10:47:49.337
213, 3757.95, -187500.02, -187500.02, -154604.83, -187500.02, -110848.71, -187500.02, -187500.02, 0.00, 0.00, 0.00, 10:47:49.341
214, 4215.85, -187500.02, -187500.02, -154550.39, -187500.02, -110792.01, -187500.02, -187500.02, 0.00, 0.00, 0.00, 10:47:49.346
215, 4333.85, -187500.02, -187500.02, -154552.58, -187500.02, -110792.72, -187500.02, -187500.02, 0.00, 0.00, 0.00, 10:47:49.351
216, 3855.45, -187500.02, -187500.02, -154594.78, -187500.02, -110831.86, -187500.02, -187500.02, 0.00, 0.00, 0.00, 10:47:49.353
217, 3718.68, -187500.02, -187500.02, -154626.95, -187500.02, -110864.36, -187500.02, -187500.02, 0.00, 0.00, 0.00, 10:47:49.358
218, 4160.35, -187500.02, -187500.02, -154596.48, -187500.02, -110830.45, -187500.02, -187500.02, 0.00, 0.00, 0.00, 10:47:49.362
219, 4408.35, -187500.02, -187500.02, -154602.08, -187500.02, -110831.68, -187500.02, -187500.02, 0.00, 0.00, 0.00, 10:47:49.365
220, 3942.24, -187500.02, -187500.02, -154628.20, -187500.02, -110856.38, -187500.02, -187500.02, 0.00, 0.00, 0.00, 10:47:49.369
221, 3638.35, -187500.02, -187500.02, -154656.77, -187500.02, -110883.76, -187500.02, -187500.02, 0.01, -0.65, 0.77, 10:47:49.375
222, 3960.30, -187500.02, -187500.02, -154592.19, -187500.02, -110817.98, -187500.02, -187500.02, 0.00, 0.00, 0.00, 10:47:49.379
223, 4379.47, -187500.02, -187500.02, -154599.56, -187500.02, -110826.13, -187500.02, -187500.02, 0.00, 0.00, 0.00, 10:47:49.381
224, 4090.01, -187500.02, -187500.02, -154637.09, -187500.02, -110862.73, -187500.02, -187500.02, 0.00, 0.00, 0.00, 10:47:49.386
225, 3741.21, -187500.02, -187500.02, -154709.92, -187500.02, -110936.84, -187500.02, -187500.02, 0.00, 0.00, 0.00, 10:47:49.390
226, 3936.72, -187500.02, -187500.02, -154684.53, -187500.02, -110913.02, -187500.02, -187500.02, 0.00, 0.00, 0.00, 10:47:49.394
227, 4272.16, -187500.02, -187500.02, -154596.86, -187500.02, -110824.05, -187500.02, -187500.02, 0.00, 0.00, 0.00, 10:47:49.398
228, 4147.01, -187500.02, -187500.02, -154638.17, -187500.02, -110862.77, -187500.02, -187500.02, 0.00, 0.00, 0.00, 10:47:49.401
229, 3738.57, -187500.02, -187500.02, -154721.45, -187500.02, -110946.23, -187500.02, -187500.02, 0.00, 0.00, 0.00, 10:47:49.407
230, 3786.47, -187500.02, -187500.02, -154657.58, -187500.02, -110880.61, -187500.02, -187500.02, 0.00, 0.00, 0.00, 10:47:49.410
231, 4172.69, -187500.02, -187500.02, -154562.28, -187500.02, -110782.88, -187500.02, -187500.02, 0.02, -0.63, 0.80, 10:47:49.414
232, 4169.65, -187500.02, -187500.02, -154578.09, -187500.02, -110796.41, -187500.02, -187500.02, 0.00, 0.00, 0.00, 10:47:49.418
233, 3787.03, -187500.02, -187500.02, -154695.02, -187500.02, -110915.23, -187500.02, -187500.02, 0.00, 0.00, 0.00, 10:47:49.422
234, 3772.95, -187500.02, -187500.02, -154706.41, -187500.02, -110924.13, -187500.02, -187500.02, 0.00, 0.00, 0.00, 10:47:49.425
235, 4155.68, -187500.02, -187500.02, -154627.23, -187500.02, -110840.45, -187500.02, -187500.02, 0.00, 0.00, 0.00, 10:47:49.430
236, 4228.73, -187500.02, -187500.02, -154613.50, -187500.02, -110825.02, -187500.02, -187500.02, 0.00, 0.00, 0.00, 10:47:49.435
237, 3743.38, -187500.02, -187500.02, -154634.03, -187500.02, -110845.74, -187500.02, -187500.02, 0.00, 0.00, 0.00, 10:47:49.438
238, 3690.05, -187500.02, -187500.02, -154665.64, -187500.02, -110875.20, -187500.02, -187500.02, 0.00, 0.00, 0.00, 10:47:49.441
239, 4081.94, -187500.02, -187500.02, -154615.42, -187500.02, -110824.73, -187500.02, -187500.02, 0.00, 0.00, 0.00, 10:47:49.446
240, 4274.59, -187500.02, -187500.02, -154584.86, -187500.02, -110791.96, -187500.02, -187500.02, 0.00, 0.00, 0.00, 10:47:49.450
241, 3933.06, -187500.02, -187500.02, -154673.64, -187500.02, -110881.10, -187500.02, -187500.02, 0.01, -0.63, 0.79, 10:47:49.454
242, 3717.65, -187500.02, -187500.02, -154748.88, -187500.02, -110959.35, -187500.02, -187500.02, 0.00, 0.00, 0.00, 10:47:49.457
243, 4016.97, -187500.02, -187500.02, -154649.95, -187500.02, -110857.70, -187500.02, -187500.02, 0.00, 0.00, 0.00, 10:47:49.462
244, 4363.60, -187500.02, -187500.02, -154635.42, -187500.02, -110840.82, -187500.02, -187500.02, 0.00, 0.00, 0.00, 10:47:49.465
245, 4053.51, -187500.02, -187500.02, -154718.34, -187500.02, -110922.92, -187500.02, -187500.02, 0.00, 0.00, 0.00, 10:47:49.469
246, 3697.49, -187500.02, -187500.02, -154764.88, -187500.02, -110970.73, -187500.02, -187500.02, 0.00, 0.00, 0.00, 10:47:49.474
247, 3958.18, -187500.02, -187500.02, -154705.52, -187500.02, -110910.89, -187500.02, -187500.02, 0.00, 0.00, 0.00, 10:47:49.478
248, 4273.14, -187500.02, -187500.02, -154635.48, -187500.02, -110837.40, -187500.02, -187500.02, 0.00, 0.00, 0.00, 10:47:49.482
249, 4050.38, -187500.02, -187500.02, -154665.50, -187500.02, -110868.60, -187500.02, -187500.02, 0.00, 0.00, 0.00, 10:47:49.486
250, 3681.24, -187500.02, -187500.02, -154732.47, -187500.02, -110936.38, -187500.02, -187500.02, 0.00, 0.00, 0.00, 10:47:49.489
251, 3874.41, -187500.02, -187500.02, -154698.97, -187500.02, -110898.45, -187500.02, -187500.02, 0.00, -0.66, 0.77, 10:47:49.493
252, 4238.02, -187500.02, -187500.02, -154630.97, -187500.02, -110824.98, -187500.02, -187500.02, 0.00, 0.00, 0.00, 10:47:49.497
253, 4100.94, -187500.02, -187500.02, -154655.31, -187500.02, -110847.66, -187500.02, -187500.02, 0.00, 0.00, 0.00, 10:47:49.501
254, 3675.12, -187500.02, -187500.02, -154703.55, -187500.02, -110897.15, -187500.02, -187500.02, 0.00, 0.00, 0.00, 10:47:49.505
255, 3855.81, -187500.02, -187500.02, -154726.13, -187500.02, -110918.94, -187500.02, -187500.02, 0.00, 0.00, 0.00, 10:47:49.510
0, 4313.93, -187500.02, -187500.02, -154710.88, -187500.02, -110902.18, -187500.02, -187500.02, 0.00, 0.00, 0.00, 10:47:49.514
1, 4247.03, -187500.02, -187500.02, -154724.20, -187500.02, -110916.35, -187500.02, -187500.02, 0.00, 0.00, 0.00, 10:47:49.516
2, 3710.64, -187500.02, -187500.02, -154748.63, -187500.02, -110942.03, -187500.02, -187500.02, 0.00, 0.00, 0.00, 10:47:49.521
3, 3692.80, -187500.02, -187500.02, -154757.44, -187500.02, -110946.86, -187500.02, -187500.02, 0.00, 0.00, 0.00, 10:47:49.525
4, 4053.22, -187500.02, -187500.02, -154638.11, -187500.02, -110820.26, -187500.02, -187500.02, 0.02, -0.63, 0.78, 10:47:49.530
5, 4234.16, -187500.02, -187500.02, -154651.94, -187500.02, -110832.59, -187500.02, -187500.02, 0.00, 0.00, 0.00, 10:47:49.533
6, 3782.09, -187500.02, -187500.02, -154730.86, -187500.02, -110914.11, -187500.02, -187500.02, 0.00, 0.00, 0.00, 10:47:49.538
7, 3563.49, -187500.02, -187500.02, -154696.08, -187500.02, -110876.12, -187500.02, -187500.02, 0.00, 0.00, 0.00, 10:47:49.542
8, 4021.15, -187500.02, -187500.02, -154667.25, -187500.02, -110844.73, -187500.02, -187500.02, 0.00, 0.00, 0.00, 10:47:49.545
9, 4247.99, -187500.02, -187500.02, -154668.44, -187500.02, -110845.78, -187500.02, -187500.02, 0.00, 0.00, 0.00, 10:47:49.549
10, 3801.96, -187500.02, -187500.02, -154703.06, -187500.02, -110881.63, -187500.02, -187500.02, 0.00, 0.00, 0.00, 10:47:49.553
11, 3540.65, -187500.02, -187500.02, -154707.50, -187500.02, -110886.91, -187500.02, -187500.02, 0.00, 0.00, 0.00, 10:47:49.556
12, 3978.36, -187500.02, -187500.02, -154689.36, -187500.02, -110865.34, -187500.02, -187500.02, 0.00, 0.00, 0.00, 10:47:49.561
13, 4386.22, -187500.02, -187500.02, -154734.95, -187500.02, -110909.45, -187500.02, -187500.02, 0.00, 0.00, 0.00, 10:47:49.566
14, 4016.18, -187500.02, -187500.02, -154793.30, -187500.02, -110968.41, -187500.02, -187500.02, 0.03, -0.60, 0.79, 10:47:49.570
15, 3567.23, -187500.02, -187500.02, -154790.14, -187500.02, -110964.85, -187500.02, -187500.02, 0.00, 0.00, 0.00, 10:47:49.573
16, 3829.28, -187500.02, -187500.02, -154721.91, -187500.02, -110894.63, -187500.02, -187500.02, 0.00, 0.00, 0.00, 10:47:49.577
17, 4245.47, -187500.02, -187500.02, -154698.42, -187500.02, -110870.30, -187500.02, -187500.02, 0.00, 0.00, 0.00, 10:47:49.581
18, 4047.59, -187500.02, -187500.02, -154737.81, -187500.02, -110911.05, -187500.02, -187500.02, 0.00, 0.00, 0.00, 10:47:49.586
19, 3614.19, -187500.02, -187500.02, -154789.30, -187500.02, -110965.70, -187500.02, -187500.02, 0.00, 0.00, 0.00, 10:47:49.590
20, 3768.12, -187500.02, -187500.02, -154750.42, -187500.02, -110927.19, -187500.02, -187500.02, 0.00, 0.00, 0.00, 10:47:49.594
21, 4167.57, -187500.02, -187500.02, -154685.05, -187500.02, -110857.72, -187500.02, -187500.02, 0.00, 0.00, 0.00, 10:47:49.597
22, 4050.09, -187500.02, -187500.02, -154710.44, -187500.02, -110880.63, -187500.02, -187500.02, 0.00, 0.00, 0.00, 10:47:49.600
23, 3569.10, -187500.02, -187500.02, -154749.41, -187500.02, -110920.51, -187500.02, -187500.02, 0.00, 0.00, 0.00, 10:47:49.605
24, 3685.36, -187500.02, -187500.02, -154749.38, -187500.02, -110918.90, -187500.02, -187500.02, 0.03, -0.63, 0.77, 10:47:49.609
25, 4158.94, -187500.02, -187500.02, -154702.75, -187500.02, -110869.84, -187500.02, -187500.02, 0.00, 0.00, 0.00, 10:47:49.613
26, 4116.03, -187500.02, -187500.02, -154702.86, -187500.02, -110869.39, -187500.02, -187500.02, 0.00, 0.00, 0.00, 10:47:49.617
27, 3638.37, -187500.02, -187500.02, -154764.56, -187500.02, -110929.58, -187500.02, -187500.02, 0.00, 0.00, 0.00, 10:47:49.622
28, 3581.42, -187500.02, -187500.02, -154725.98, -187500.02, -110887.73, -187500.02, -187500.02, 0.00, 0.00, 0.00, 10:47:49.625
29, 4114.15, -187500.02, -187500.02, -154716.41, -187500.02, -110874.28, -187500.02, -187500.02, 0.00, 0.00, 0.00, 10:47:49.628
30, 4202.93, -187500.02, -187500.02, -154724.16, -187500.02, -110878.08, -187500.02, -187500.02, 0.00, 0.00, 0.00, 10:47:49.633
31, 3764.12, -187500.02, -187500.02, -154804.27, -187500.02, -110956.49, -187500.02, -187500.02, 0.00, 0.00, 0.00, 10:47:49.637
32, 3622.41, -187500.02, -187500.02, -154840.28, -187500.02, -110989.80, -187500.02, -187500.02, 0.00, 0.00, 0.00, 10:47:49.641
33, 3995.58, -187500.02, -187500.02, -154766.14, -187500.02, -110911.88, -187500.02, -187500.02, 0.00, 0.00, 0.00, 10:47:49.646
34, 4233.40, -187500.02, -187500.02, -154759.70, -187500.02, -110904.57, -187500.02, -187500.02, 0.03, -0.63, 0.77, 10:47:49.650
35, 3831.31, -187500.02, -187500.02, -154846.38, -187500.02, -110992.70, -187500.02, -187500.02, 0.00, 0.00, 0.00, 10:47:49.653
36, 3512.78, -187500.02, -187500.02, -154844.66, -187500.02, -110991.36, -187500.02, -187500.02, 0.00, 0.00, 0.00, 10:47:49.656
37, 3851.83, -187500.02, -187500.02, -154748.45, -187500.02, -110894.66, -187500.02, -187500.02, 0.00, 0.00, 0.00, 10:47:49.661
38, 4249.63, -187500.02, -187500.02, -154735.98, -187500.02, -110881.13, -187500.02, -187500.02, 0.00, 0.00, 0.00, 10:47:49.665
39, 3966.18, -187500.02, -187500.02, -154829.33, -187500.02, -110974.30, -187500.02, -187500.02, 0.00, 0.00, 0.00, 10:47:49.669
40, 3534.01, -187500.02, -187500.02, -154848.00, -187500.02, -110991.80, -187500.02, -187500.02, 0.00, 0.00, 0.00, 10:47:49.674
41, 3807.75, -187500.02, -187500.02, -154793.30, -187500.02, -110932.91, -187500.02, -187500.02, 0.00, 0.00, 0.00, 10:47:49.677
42, 4209.06, -187500.02, -187500.02, -154744.75, -187500.02, -110883.11, -187500.02, -187500.02, 0.00, 0.00, 0.00, 10:47:49.681
43, 4015.69, -187500.02, -187500.02, -154792.17, -187500.02, -110931.75, -187500.02, -187500.02, 0.02, -0.64, 0.77, 10:47:49.685
44, 3582.00, -187500.02, -187500.02, -154843.78, -187500.02, -110985.55, -187500.02, -187500.02, 0.00, 0.00, 0.00, 10:47:49.690
45, 3793.36, -187500.02, -187500.02, -154815.03, -187500.02, -110955.11, -187500.02, -187500.02, 0.00, 0.00, 0.00, 10:47:49.693
46, 4270.59, -187500.02, -187500.02, -154778.11, -187500.02, -110916.86, -187500.02, -187500.02, 0.00, 0.00, 0.00, 10:47:49.697
47, 4188.25, -187500.02, -187500.02, -154819.27, -187500.02, -110957.85, -187500.02, -187500.02, 0.00, 0.00, 0.00, 10:47:49.702
48, 3703.10, -187500.02, -187500.02, -154905.05, -187500.02, -111042.97, -187500.02, -187500.02, 0.00, 0.00, 0.00, 10:47:49.705
49, 3730.19, -187500.02, -187500.02, -154887.75, -187500.02, -111026.99, -187500.02, -187500.02, 0.00, 0.00, 0.00, 10:47:49.709
50, 4124.05, -187500.02, -187500.02, -154780.06, -187500.02, -110916.52, -187500.02, -187500.02, 0.00, 0.00, 0.00, 10:47:49.712
51, 4149.22, -187500.02, -187500.02, -154774.72, -187500.02, -110907.48, -187500.02, -187500.02, 0.00, 0.00, 0.00, 10:47:49.717
52, 3650.58, -187500.02, -187500.02, -154814.66, -187500.02, -110946.86, -187500.02, -187500.02, 0.00, 0.00, 0.00, 10:47:49.721
53, 3624.18, -187500.02, -187500.02, -154800.11, -187500.02, -110932.40, -187500.02, -187500.02, 0.01, -0.65, 0.77, 10:47:49.725
54, 4145.18, -187500.02, -187500.02, -154795.70, -187500.02, -110928.48, -187500.02, -187500.02, 0.00, 0.00, 0.00, 10:47:49.730
55, 4246.50, -187500.02, -187500.02, -154776.81, -187500.02, -110909.28, -187500.02, -187500.02, 0.00, 0.00, 0.00, 10:47:49.733
56, 3721.07, -187500.02, -187500.02, -154791.84, -187500.02, -110924.55, -187500.02, -187500.02, 0.00, 0.00, 0.00, 10:47:49.736
57, 3537.19, -187500.02, -187500.02, -154792.28, -187500.02, -110923.79, -187500.02, -187500.02, 0.00, 0.00, 0.00, 10:47:49.741
58, 4022.00, -187500.02, -187500.02, -154780.94, -187500.02, -110911.95, -187500.02, -187500.02, 0.00, 0.00, 0.00, 10:47:49.745
59, 4322.13, -187500.02, -187500.02, -154771.16, -187500.02, -110900.45, -187500.02, -187500.02, 0.00, 0.00, 0.00, 10:47:49.749
60, 3965.22, -187500.02, -187500.02, -154863.30, -187500.02, -110991.70, -187500.02, -187500.02, 0.00, 0.00, 0.00, 10:47:49.753
61, 3648.83, -187500.02, -187500.02, -154918.14, -187500.02, -111048.11, -187500.02, -187500.02, 0.00, 0.00, 0.00, 10:47:49.758
62, 3920.00, -187500.02, -187500.02, -154832.34, -187500.02, -110961.27, -187500.02, -187500.02, 0.00, 0.00, 0.00, 10:47:49.762
63, 4211.58, -187500.02, -187500.02, -154756.36, -187500.02, -110883.80, -187500.02, -187500.02, 0.02, -0.69, 0.75, 10:47:49.764
64, 3852.84, -187500.02, -187500.02, -154759.56, -187500.02, -110885.80, -187500.02, -187500.02, 0.00, 0.00, 0.00, 10:47:49.769
65, 3481.84, -187500.02, -187500.02, -154798.88, -187500.02, -110924.71, -187500.02, -187500.02, 0.00, 0.00, 0.00, 10:47:49.773
66, 3789.89, -187500.02, -187500.02, -154768.25, -187500.02, -110893.15, -187500.02, -187500.02, 0.00, 0.00, 0.00, 10:47:49.777
67, 4245.02, -187500.02, -187500.02, -154748.09, -187500.02, -110870.84, -187500.02, -187500.02, 0.00, 0.00, 0.00, 10:47:49.781
68, 4008.29, -187500.02, -187500.02, -154794.03, -187500.02, -110914.52, -187500.02, -187500.02, 0.00, 0.00, 0.00, 10:47:49.786
69, 3509.74, -187500.02, -187500.02, -154838.98, -187500.02, -110957.21, -187500.02, -187500.02, 0.00, 0.00, 0.00, 10:47:49.789
70, 3647.56, -187500.02, -187500.02, -154805.73, -187500.02, -110922.23, -187500.02, -187500.02, 0.00, 0.00, 0.00, 10:47:49.792
71, 4093.65, -187500.02, -187500.02, -154738.75, -187500.02, -110855.53, -187500.02, -187500.02, 0.00, 0.00, 0.00, 10:47:49.797
72, 4019.80, -187500.02, -187500.02, -154780.39, -187500.02, -110897.62, -187500.02, -187500.02, 0.00, 0.00, 0.00, 10:47:49.801
73, 3468.43, -187500.02, -187500.02, -154811.73, -187500.02, -110928.33, -187500.02, -187500.02, 0.03, -0.65, 0.76, 10:47:49.805
74, 3527.91, -187500.02, -187500.02, -154776.58, -187500.02, -110890.51, -187500.02, -187500.02, 0.00, 0.00, 0.00, 10:47:49.810
75, 4090.66, -187500.02, -187500.02, -154740.14, -187500.02, -110851.91, -187500.02, -187500.02, 0.00, 0.00, 0.00, 10:47:49.813
76, 4193.23, -187500.02, -187500.02, -154803.42, -187500.02, -110916.41, -187500.02, -187500.02, 0.00, 0.00, 0.00, 10:47:49.816
77, 3680.73, -187500.02, -187500.02, -154889.17, -187500.02, -111002.60, -187500.02, -187500.02, 0.00, 0.00, 0.00, 10:47:49.821
78, 3537.79, -187500.02, -187500.02, -154874.05, -187500.02, -110987.27, -187500.02, -187500.02, 0.00, 0.00, 0.00, 10:47:49.824
79, 3975.48, -187500.02, -187500.02, -154811.22, -187500.02, -110922.85, -187500.02, -187500.02, 0.00, 0.00, 0.00, 10:47:49.829
80, 4115.05, -187500.02, -187500.02, -154784.08, -187500.02, -110892.59, -187500.02, -187500.02, 0.00, 0.00, 0.00, 10:47:49.833
81, 3730.37, -187500.02, -187500.02, -154894.92, -187500.02, -111004.81, -187500.02, -187500.02, 0.00, 0.00, 0.00, 10:47:49.837
82, 3514.05, -187500.02, -187500.02, -154930.73, -187500.02, -111043.15, -187500.02, -187500.02, 0.00, 0.00, 0.00, 10:47:49.841
83, 3887.42, -187500.02, -187500.02, -154856.77, -187500.02, -110967.31, -187500.02, -187500.02, 0.05, -0.62, 0.78, 10:47:49.845
84, 4070.68, -187500.02, -187500.02, -154763.30, -187500.02, -110872.00, -187500.02, -187500.02, 0.00, 0.00, 0.00, 10:47:49.848
85, 3692.28, -187500.02, -187500.02, -154793.58, -187500.02, -110902.24, -187500.02, -187500.02, 0.00, 0.00, 0.00, 10:47:49.853
86, 3421.96, -187500.02, -187500.02, -154847.61, -187500.02, -110958.08, -187500.02, -187500.02, 0.00, 0.00, 0.00, 10:47:49.857
87, 3736.05, -187500.02, -187500.02, -154765.63, -187500.02, -110876.41, -187500.02, -187500.02, 0.00, 0.00, 0.00, 10:47:49.862
88, 4145.49, -187500.02, -187500.02, -154734.14, -187500.02, -110842.16, -187500.02, -187500.02, 0.00, 0.00, 0.00, 10:47:49.865
89, 3904.18, -187500.02, -187500.02, -154821.97, -187500.02, -110928.66, -187500.02, -187500.02, 0.00, 0.00, 0.00, 10:47:49.869
90, 3477.15, -187500.02, -187500.02, -154870.05, -187500.02, -110975.65, -187500.02, -187500.02, 0.00, 0.00, 0.00, 10:47:49.872
91, 3709.05, -187500.02, -187500.02, -154828.16, -187500.02, -110930.85, -187500.02, -187500.02, 0.00, 0.00, 0.00, 10:47:49.876
92, 4158.39, -187500.02, -187500.02, -154786.63, -187500.02, -110885.46, -187500.02, -187500.02, 0.06, -0.66, 0.76, 10:47:49.881
93, 4023.90, -187500.02, -187500.02, -154851.41, -187500.02, -110949.01, -187500.02, -187500.02, 0.00, 0.00, 0.00, 10:47:49.886
94, 3539.87, -187500.02, -187500.02, -154901.23, -187500.02, -111000.57, -187500.02, -187500.02, 0.00, 0.00, 0.00, 10:47:49.889
95, 3645.52, -187500.02, -187500.02, -154861.16, -187500.02, -110961.70, -187500.02, -187500.02, 0.00, 0.00, 0.00, 10:47:49.893
96, 4134.83, -187500.02, -187500.02, -154825.55, -187500.02, -110923.21, -187500.02, -187500.02, 0.00, 0.00, 0.00, 10:47:49.898
97, 4045.64, -187500.02, -187500.02, -154829.56, -187500.02, -110923.50, -187500.02, -187500.02, 0.00, 0.00, 0.00, 10:47:49.902
98, 3532.22, -187500.02, -187500.02, -154885.48, -187500.02, -110979.18, -187500.02, -187500.02, 0.00, 0.00, 0.00, 10:47:49.904
99, 3536.54, -187500.02, -187500.02, -154862.25, -187500.02, -110955.33, -187500.02, -187500.02, 0.00, 0.00, 0.00, 10:47:49.908
100, 4084.51, -187500.02, -187500.02, -154826.66, -187500.02, -110917.53, -187500.02, -187500.02, 0.00, 0.00, 0.00, 10:47:49.913
101, 4193.25, -187500.02, -187500.02, -154871.19, -187500.02, -110961.03, -187500.02, -187500.02, 0.00, 0.00, 0.00, 10:47:49.917
102, 3612.42, -187500.02, -187500.02, -154880.58, -187500.02, -110969.99, -187500.02, -187500.02, 0.04, -0.68, 0.74, 10:47:49.922
103, 3531.89, -187500.02, -187500.02, -154912.73, -187500.02, -111004.77, -187500.02, -187500.02, 0.00, 0.00, 0.00, 10:47:49.924
104, 3953.49, -187500.02, -187500.02, -154829.98, -187500.02, -110923.48, -187500.02, -187500.02, 0.00, 0.00, 0.00, 10:47:49.928
105, 4205.17, -187500.02, -187500.02, -154807.86, -187500.02, -110898.73, -187500.02, -187500.02, 0.00, 0.00, 0.00, 10:47:49.933
106, 3817.41, -187500.02, -187500.02, -154899.33, -187500.02, -110987.00, -187500.02, -187500.02, 0.00, 0.00, 0.00, 10:47:49.937
107, 3543.44, -187500.02, -187500.02, -154911.95, -187500.02, -111000.15, -187500.02, -187500.02, 0.00, 0.00, 0.00, 10:47:49.941
108, 3991.08, -187500.02, -187500.02, -154902.41, -187500.02, -110989.70, -187500.02, -187500.02, 0.00, 0.00, 0.00, 10:47:49.945
109, 4259.08, -187500.02, -187500.02, -154860.48, -187500.02, -110944.66, -187500.02, -187500.02, 0.00, 0.00, 0.00, 10:47:49.949
110, 3911.13, -187500.02, -187500.02, -154929.88, -187500.02, -111011.73, -187500.02, -187500.02, 0.00, 0.00, 0.00, 10:47:49.952
111, 3511.48, -187500.02, -187500.02, -154955.16, -187500.02, -111037.07, -187500.02, -187500.02, 0.00, 0.00, 0.00, 10:47:49.956
112, 3800.91, -187500.02, -187500.02, -154884.98, -187500.02, -110962.20, -187500.02, -187500.02, 0.06, -0.66, 0.75, 10:47:49.960
113, 4187.51, -187500.02, -187500.02, -154829.97, -187500.02, -110903.52, -187500.02, -187500.02, 0.00, 0.00, 0.00, 10:47:49.965
114, 3966.47, -187500.02, -187500.02, -154903.00, -187500.02, -110978.51, -187500.02, -187500.02, 0.00, 0.00, 0.00, 10:47:49.970
115, 3544.41, -187500.02, -187500.02, -154978.50, -187500.02, -111055.69, -187500.02, -187500.02, 0.00, 0.00, 0.00, 10:47:49.973
116, 3731.60, -187500.02, -187500.02, -154941.38, -187500.02, -111016.80, -187500.02, -187500.02, 0.00, 0.00, 0.00, 10:47:49.976
117, 4132.01, -187500.02, -187500.02, -154861.17, -187500.02, -110931.10, -187500.02, -187500.02, 0.00, 0.00, 0.00, 10:47:49.981
118, 3992.04, -187500.02, -187500.02, -154885.53, -187500.02, -110953.07, -187500.02, -187500.02, 0.00, 0.00, 0.00, 10:47:49.984
119, 3519.64, -187500.02, -187500.02, -154981.22, -187500.02, -111052.34, -187500.02, -187500.02, 0.00, 0.00, 0.00, 10:47:49.988
120, 3576.70, -187500.02, -187500.02, -154912.81, -187500.02, -110986.76, -187500.02, -187500.02, 0.00, 0.00, 0.00, 10:47:49.993
121, 4086.35, -187500.02, -187500.02, -154840.00, -187500.02, -110914.34, -187500.02, -187500.02, 0.00, 0.00, 0.00, 10:47:49.998
122, 4133.69, -187500.02, -187500.02, -154880.19, -187500.02, -110951.69, -187500.02, -187500.02, 0.07, -0.67, 0.74, 10:47:50.001
123, 3640.72, -187500.02, -187500.02, -154979.70, -187500.02, -111051.38, -187500.02, -187500.02, 0.00, 0.00, 0.00, 10:47:50.004
124, 3648.99, -187500.02, -187500.02, -155000.09, -187500.02, -111072.12, -187500.02, -187500.02, 0.00, 0.00, 0.00, 10:47:50.009
125, 4088.89, -187500.02, -187500.02, -154945.89, -187500.02, -111017.34, -187500.02, -187500.02, 0.00, 0.00, 0.00, 10:47:50.012
126, 4143.57, -187500.02, -187500.02, -154912.58, -187500.02, -110979.76, -187500.02, -187500.02, 0.00, 0.00, 0.00, 10:47:50.016
127, 3631.87, -187500.02, -187500.02, -154977.89, -187500.02, -111042.50, -187500.02, -187500.02, 0.00, 0.00, 0.00, 10:47:50.021
128, 3470.51, -187500.02, -187500.02, -154985.52, -187500.02, -111048.49, -187500.02, -187500.02, 0.00, 0.00, 0.00, 10:47:50.025
129, 3944.77, -187500.02, -187500.02, -154926.02, -187500.02, -110987.20, -187500.02, -187500.02, 0.00, 0.00, 0.00, 10:47:50.028
130, 4223.83, -187500.02, -187500.02, -154950.83, -187500.02, -111008.70, -187500.02, -187500.02, 0.00, 0.00, 0.00, 10:47:50.033
131, 3790.63, -187500.02, -187500.02, -155035.53, -187500.02, -111092.34, -187500.02, -187500.02, 0.00, 0.00, 0.00, 10:47:50.037
132, 3487.16, -187500.02, -187500.02, -155066.56, -187500.02, -111123.73, -187500.02, -187500.02, 0.06, -0.69, 0.74, 10:47:50.041
133, 3835.81, -187500.02, -187500.02, -154985.36, -187500.02, -111038.55, -187500.02, -187500.02, 0.00, 0.00, 0.00, 10:47:50.044
134, 4168.78, -187500.02, -187500.02, -154959.08, -187500.02, -111009.24, -187500.02, -187500.02, 0.00, 0.00, 0.00, 10:47:50.049
135, 3810.93, -187500.02, -187500.02, -155031.27, -187500.02, -111081.69, -187500.02, -187500.02, 0.00, 0.00, 0.00, 10:47:50.052
136, 3404.53, -187500.02, -187500.02, -155052.64, -187500.02, -111103.12, -187500.02, -187500.02, 0.00, 0.00, 0.00, 10:47:50.056
137, 3751.65, -187500.02, -187500.02, -155008.67, -187500.02, -111055.35, -187500.02, -187500.02, 0.00, 0.00, 0.00, 10:47:50.060
138, 4207.96, -187500.02, -187500.02, -154987.48, -187500.02, -111030.43, -187500.02, -187500.02, 0.00, 0.00, 0.00, 10:47:50.065
139, 3942.87, -187500.02, -187500.02, -155024.77, -187500.02, -111065.63, -187500.02, -187500.02, 0.00, 0.00, 0.00, 10:47:50.069
140, 3448.87, -187500.02, -187500.02, -155040.34, -187500.02, -111080.66, -187500.02, -187500.02, 0.00, 0.00, 0.00, 10:47:50.073
141, 3706.88, -187500.02, -187500.02, -155017.30, -187500.02, -111056.49, -187500.02, -187500.02, 0.06, -0.67, 0.76, 10:47:50.076
142, 4183.20, -187500.02, -187500.02, -154981.06, -187500.02, -111017.38, -187500.02, -187500.02, 0.00, 0.00, 0.00, 10:47:50.080
143, 4031.54, -187500.02, -187500.02, -155008.58, -187500.02, -111043.17, -187500.02, -187500.02, 0.00, 0.00, 0.00, 10:47:50.085
144, 3494.87, -187500.02, -187500.02, -155056.59, -187500.02, -111091.52, -187500.02, -187500.02, 0.00, 0.00, 0.00, 10:47:50.088
145, 3574.45, -187500.02, -187500.02, -155015.02, -187500.02, -111048.31, -187500.02, -187500.02, 0.00, 0.00, 0.00, 10:47:50.092
146, 4131.41, -187500.02, -187500.02, -154978.14, -187500.02, -111007.50, -187500.02, -187500.02, 0.00, 0.00, 0.00, 10:47:50.097
147, 4138.87, -187500.02, -187500.02, -154995.58, -187500.02, -111022.95, -187500.02, -187500.02, 0.00, 0.00, 0.00, 10:47:50.099
148, 3594.72, -187500.02, -187500.02, -155053.23, -187500.02, -111081.02, -187500.02, -187500.02, 0.00, 0.00, 0.00, 10:47:50.104
149, 3511.32, -187500.02, -187500.02, -155029.25, -187500.02, -111056.47, -187500.02, -187500.02, 0.00, 0.00, 0.00, 10:47:50.109
150, 4007.71, -187500.02, -187500.02, -154965.88, -187500.02, -110989.44, -187500.02, -187500.02, 0.00, 0.00, 0.00, 10:47:50.112
151, 4170.01, -187500.02, -187500.02, -154963.86, -187500.02, -110985.44, -187500.02, -187500.02, 0.07, -0.66, 0.76, 10:47:50.116
152, 3707.95, -187500.02, -187500.02, -155044.23, -187500.02, -111066.69, -187500.02, -187500.02, 0.00, 0.00, 0.00, 10:47:50.121
153, 3518.30, -187500.02, -187500.02, -155063.09, -187500.02, -111084.70, -187500.02, -187500.02, 0.00, 0.00, 0.00, 10:47:50.125
154, 3927.47, -187500.02, -187500.02, -154975.92, -187500.02, -110992.88, -187500.02, -187500.02, 0.00, 0.00, 0.00, 10:47:50.127
155, 4241.04, -187500.02, -187500.02, -154975.09, -187500.02, -110990.47, -187500.02, -187500.02, 0.00, 0.00, 0.00, 10:47:50.133
156, 3838.31, -187500.02, -187500.02, -155074.03, -187500.02, -111093.93, -187500.02, -187500.02, 0.00, 0.00, 0.00, 10:47:50.137
157, 3511.64, -187500.02, -187500.02, -155089.83, -187500.02, -111110.92, -187500.02, -187500.02, 0.00, 0.00, 0.00, 10:47:50.140
158, 3900.87, -187500.02, -187500.02, -155020.20, -187500.02, -111039.08, -187500.02, -187500.02, 0.00, 0.00, 0.00, 10:47:50.144
159, 4314.11, -187500.02, -187500.02, -155022.13, -187500.02, -111038.03, -187500.02, -187500.02, 0.00, 0.00, 0.00, 10:47:50.149
160, 3932.77, -187500.02, -187500.02, -155064.80, -187500.02, -111079.43, -187500.02, -187500.02, 0.00, 0.00, 0.00, 10:47:50.152
161, 3462.64, -187500.02, -187500.02, -155074.81, -187500.02, -111089.38, -187500.02, -187500.02, 0.07, -0.69, 0.74, 10:47:50.156
162, 3759.63, -187500.02, -187500.02, -155028.44, -187500.02, -111039.88, -187500.02, -187500.02, 0.00, 0.00, 0.00, 10:47:50.160
163, 4188.56, -187500.02, -187500.02, -154971.36, -187500.02, -110978.24, -187500.02, -187500.02, 0.00, 0.00, 0.00, 10:47:50.164
164, 3982.05, -187500.02, -187500.02, -154997.39, -187500.02, -111003.95, -187500.02, -187500.02, 0.00, 0.00, 0.00, 10:47:50.169
165, 3566.80, -187500.02, -187500.02, -155097.16, -187500.02, -111107.59, -187500.02, -187500.02, 0.00, 0.00, 0.00, 10:47:50.173
166, 3721.65, -187500.02, -187500.02, -155088.31, -187500.02, -111099.55, -187500.02, -187500.02, 0.00, 0.00, 0.00, 10:47:50.176
167, 4173.81, -187500.02, -187500.02, -155031.67, -187500.02, -111039.30, -187500.02, -187500.02, 0.00, 0.00, 0.00, 10:47:50.181
168, 3999.38, -187500.02, -187500.02, -154996.84, -187500.02, -111002.27, -187500.02, -187500.02, 0.00, 0.00, 0.00, 10:47:50.183
169, 3481.42, -187500.02, -187500.02, -155022.13, -187500.02, -111027.84, -187500.02, -187500.02, 0.00, 0.00, 0.00, 10:47:50.188
170, 3606.21, -187500.02, -187500.02, -155024.39, -187500.02, -111029.63, -187500.02, -187500.02, 0.00, 0.00, 0.00, 10:47:50.193
171, 4218.58, -187500.02, -187500.02, -155052.41, -187500.02, -111056.34, -187500.02, -187500.02, 0.07, -0.67, 0.74, 10:47:50.197
172, 4231.81, -187500.02, -187500.02, -155082.13, -187500.02, -111083.85, -187500.02, -187500.02, 0.00, 0.00, 0.00, 10:47:50.200
173, 3617.41, -187500.02, -187500.02, -155119.48, -187500.02, -111119.73, -187500.02, -187500.02, 0.00, 0.00, 0.00, 10:47:50.204
174, 3512.76, -187500.02, -187500.02, -155098.50, -187500.02, -111097.58, -187500.02, -187500.02, 0.00, 0.00, 0.00, 10:47:50.208
175, 4026.20, -187500.02, -187500.02, -155073.63, -187500.02, -111071.65, -187500.02, -187500.02, 0.00, 0.00, 0.00, 10:47:50.212
176, 4151.14, -187500.02, -187500.02, -155043.66, -187500.02, -111037.78, -187500.02, -187500.02, 0.00, 0.00, 0.00, 10:47:50.215
177, 3640.43, -187500.02, -187500.02, -155087.70, -187500.02, -111082.27, -187500.02, -187500.02, 0.00, 0.00, 0.00, 10:47:50.221
178, 3460.23, -187500.02, -187500.02, -155105.70, -187500.02, -111100.03, -187500.02, -187500.02, 0.00, 0.00, 0.00, 10:47:50.225
179, 3866.72, -187500.02, -187500.02, -155044.81, -187500.02, -111034.45, -187500.02, -187500.02, 0.00, 0.00, 0.00, 10:47:50.228
180, 4170.37, -187500.02, -187500.02, -155035.36, -187500.02, -111020.98, -187500.02, -187500.02, 0.08, -0.65, 0.75, 10:47:50.233
181, 3744.34, -187500.02, -187500.02, -155121.61, -187500.02, -111108.71, -187500.02, -187500.02, 0.00, 0.00, 0.00, 10:47:50.237
182, 3349.19, -187500.02, -187500.02, -155122.98, -187500.02, -111112.24, -187500.02, -187500.02, 0.00, 0.00, 0.00, 10:47:50.239
183, 3703.35, -187500.02, -187500.02, -155042.83, -187500.02, -111030.03, -187500.02, -187500.02, 0.00, 0.00, 0.00, 10:47:50.244
184, 4135.32, -187500.02, -187500.02, -155002.08, -187500.02, -110986.48, -187500.02, -187500.02, 0.00, 0.00, 0.00, 10:47:50.249
185, 3900.22, -187500.02, -187500.02, -155091.86, -187500.02, -111075.76, -187500.02, -187500.02, 0.00, 0.00, 0.00, 10:47:50.252
186, 3464.48, -187500.02, -187500.02, -155162.72, -187500.02, -111148.47, -187500.02, -187500.02, 0.00, 0.00, 0.00, 10:47:50.257
187, 3684.04, -187500.02, -187500.02, -155093.30, -187500.02, -111076.59, -187500.02, -187500.02, 0.00, 0.00, 0.00, 10:47:50.260
188, 4143.79, -187500.02, -187500.02, -155054.34, -187500.02, -111034.77, -187500.02, -187500.02, 0.00, 0.00, 0.00, 10:47:50.263
189, 3921.93, -187500.02, -187500.02, -155092.95, -187500.02, -111072.66, -187500.02, -187500.02, 0.00, 0.00, 0.00, 10:47:50.268
190, 3390.78, -187500.02, -187500.02, -155123.50, -187500.02, -111101.94, -187500.02, -187500.02, 0.09, -0.66, 0.75, 10:47:50.272
191, 3602.68, -187500.02, -187500.02, -155124.45, -187500.02, -111100.05, -187500.02, -187500.02, 0.00, 0.00, 0.00, 10:47:50.275
192, 4095.71, -187500.02, -187500.02, -155061.05, -187500.02, -111029.80, -187500.02, -187500.02, 0.00, 0.00, 0.00, 10:47:50.281
193, 4049.47, -187500.02, -187500.02, -155100.52, -187500.02, -111067.85, -187500.02, -187500.02, 0.00, 0.00, 0.00, 10:47:50.285
194, 3479.41, -187500.02, -187500.02, -155156.11, -187500.02, -111125.80, -187500.02, -187500.02, 0.00, 0.00, 0.00, 10:47:50.287
195, 3497.78, -187500.02, -187500.02, -155135.67, -187500.02, -111106.31, -187500.02, -187500.02, 0.00, 0.00, 0.00, 10:47:50.292
196, 3990.28, -187500.02, -187500.02, -155078.30, -187500.02, -111049.05, -187500.02, -187500.02, 0.00, 0.00, 0.00, 10:47:50.295
197, 4050.05, -187500.02, -187500.02, -155079.58, -187500.02, -111050.81, -187500.02, -187500.02, 0.00, 0.00, 0.00, 10:47:50.300
198, 3519.91, -187500.02, -187500.02, -155122.89, -187500.02, -111095.36, -187500.02, -187500.02, 0.00, 0.00, 0.00, 10:47:50.304
199, 3492.06, -187500.02, -187500.02, -155174.45, -187500.02, -111146.70, -187500.02, -187500.02, 0.00, 0.00, 0.00, 10:47:50.309
200, 3957.85, -187500.02, -187500.02, -155119.30, -187500.02, -111090.40, -187500.02, -187500.02, 0.08, -0.68, 0.73, 10:47:50.312
201, 4148.22, -187500.02, -187500.02, -155090.19, -187500.02, -111058.15, -187500.02, -187500.02, 0.00, 0.00, 0.00, 10:47:50.316
202, 3709.85, -187500.02, -187500.02, -155158.81, -187500.02, -111124.95, -187500.02, -187500.02, 0.00, 0.00, 0.00, 10:47:50.320
203, 3446.77, -187500.02, -187500.02, -155182.84, -187500.02, -111149.03, -187500.02, -187500.02, 0.00, 0.00, 0.00, 10:47:50.324
204, 3855.61, -187500.02, -187500.02, -155092.98, -187500.02, -111056.56, -187500.02, -187500.02, 0.00, 0.00, 0.00, 10:47:50.330
205, 4182.59, -187500.02, -187500.02, -155047.67, -187500.02, -111009.17, -187500.02, -187500.02, 0.00, 0.00, 0.00, 10:47:50.333
206, 3863.63, -187500.02, -187500.02, -155156.86, -187500.02, -111118.12, -187500.02, -187500.02, 0.00, 0.00, 0.00, 10:47:50.337
207, 3474.11, -187500.02, -187500.02, -155203.28, -187500.02, -111165.80, -187500.02, -187500.02, 0.00, 0.00, 0.00, 10:47:50.340
208, 3812.05, -187500.02, -187500.02, -155155.50, -187500.02, -111113.27, -187500.02, -187500.02, 0.00, 0.00, 0.00, 10:47:50.344
209, 4202.82, -187500.02, -187500.02, -155117.64, -187500.02, -111071.47, -187500.02, -187500.02, 0.00, 0.00, 0.00, 10:47:50.348
210, 3905.16, -187500.02, -187500.02, -155162.92, -187500.02, -111117.05, -187500.02, -187500.02, 0.09, -0.67, 0.74, 10:47:50.351
211, 3427.71, -187500.02, -187500.02, -155197.97, -187500.02, -111153.70, -187500.02, -187500.02, 0.00, 0.00, 0.00, 10:47:50.356
212, 3676.88, -187500.02, -187500.02, -155136.56, -187500.02, -111091.02, -187500.02, -187500.02, 0.00, 0.00, 0.00, 10:47:50.360
213, 4205.37, -187500.02, -187500.02, -155105.20, -187500.02, -111056.80, -187500.02, -187500.02, 0.00, 0.00, 0.00, 10:47:50.365
214, 4068.02, -187500.02, -187500.02, -155150.81, -187500.02, -111104.30, -187500.02, -187500.02, 0.00, 0.00, 0.00, 10:47:50.367
215, 3546.75, -187500.02, -187500.02, -155207.41, -187500.02, -111161.50, -187500.02, -187500.02, 0.00, 0.00, 0.00, 10:47:50.372
216, 3666.22, -187500.02, -187500.02, -155193.91, -187500.02, -111144.85, -187500.02, -187500.02, 0.00, 0.00, 0.00, 10:47:50.376
217, 4170.23, -187500.02, -187500.02, -155156.80, -187500.02, -111105.78, -187500.02, -187500.02, 0.00, 0.00, 0.00, 10:47:50.379
218, 4157.33, -187500.02, -187500.02, -155203.17, -187500.02, -111151.98, -187500.02, -187500.02, 0.00, 0.00, 0.00, 10:47:50.384
219, 3550.15, -187500.02, -187500.02, -155243.72, -187500.02, -111192.52, -187500.02, -187500.02, 0.00, 0.00, 0.00, 10:47:50.388
220, 3501.02, -187500.02, -187500.02, -155192.34, -187500.02, -111136.76, -187500.02, -187500.02, 0.09, -0.66, 0.75, 10:47:50.393
221, 4030.29, -187500.02, -187500.02, -155130.58, -187500.02, -111074.51, -187500.02, -187500.02, 0.00, 0.00, 0.00, 10:47:50.395
222, 4194.66, -187500.02, -187500.02, -155154.94, -187500.02, -111099.79, -187500.02, -187500.02, 0.00, 0.00, 0.00, 10:47:50.399
223, 3672.26, -187500.02, -187500.02, -155245.95, -187500.02, -111195.08, -187500.02, -187500.02, 0.00, 0.00, 0.00, 10:47:50.404
224, 3418.14, -187500.02, -187500.02, -155193.72, -187500.02, -111142.19, -187500.02, -187500.02, 0.00, 0.00, 0.00, 10:47:50.408
225, 3896.87, -187500.02, -187500.02, -155129.08, -187500.02, -111075.25, -187500.02, -187500.02, 0.00, 0.00, 0.00, 10:47:50.412
226, 4121.50, -187500.02, -187500.02, -155115.00, -187500.02, -111061.34, -187500.02, -187500.02, 0.00, 0.00, 0.00, 10:47:50.415
227, 3660.57, -187500.02, -187500.02, -155162.36, -187500.02, -111108.66, -187500.02, -187500.02, 0.00, 0.00, 0.00, 10:47:50.421
228, 3402.96, -187500.02, -187500.02, -155202.94, -187500.02, -111148.80, -187500.02, -187500.02, 0.00, 0.00, 0.00, 10:47:50.424
229, 3770.29, -187500.02, -187500.02, -155130.25, -187500.02, -111072.84, -187500.02, -187500.02, 0.09, -0.65, 0.75, 10:47:50.426
230, 4148.68, -187500.02, -187500.02, -155109.80, -187500.02, -111049.74, -187500.02, -187500.02, 0.00, 0.00, 0.00, 10:47:50.432
231, 3790.25, -187500.02, -187500.02, -155178.77, -187500.02, -111120.02, -187500.02, -187500.02, 0.00, 0.00, 0.00, 10:47:50.436
232, 3378.76, -187500.02, -187500.02, -155209.45, -187500.02, -111151.00, -187500.02, -187500.02, 0.00, 0.00, 0.00, 10:47:50.440
233, 3694.88, -187500.02, -187500.02, -155144.80, -187500.02, -111082.98, -187500.02, -187500.02, 0.00, 0.00, 0.00, 10:47:50.444
234, 4174.93, -187500.02, -187500.02, -155136.13, -187500.02, -111071.65, -187500.02, -187500.02, 0.00, 0.00, 0.00, 10:47:50.448
235, 3934.60, -187500.02, -187500.02, -155208.00, -187500.02, -111144.49, -187500.02, -187500.02, 0.00, 0.00, 0.00, 10:47:50.451
236, 3425.38, -187500.02, -187500.02, -155257.73, -187500.02, -111195.52, -187500.02, -187500.02, 0.00, 0.00, 0.00, 10:47:50.455
237, 3624.94, -187500.02, -187500.02, -155213.69, -187500.02, -111147.45, -187500.02, -187500.02, 0.00, 0.00, 0.00, 10:47:50.460
238, 4060.33, -187500.02, -187500.02, -155137.17, -187500.02, -111067.31, -187500.02, -187500.02, 0.00, 0.00, 0.00, 10:47:50.464
239, 3912.43, -187500.02, -187500.02, -155149.80, -187500.02, -111078.58, -187500.02, -187500.02, 0.08, -0.65, 0.75, 10:47:50.467
240, 3433.38, -187500.02, -187500.02, -155226.47, -187500.02, -111161.46, -187500.02, -187500.02, 0.00, 0.00, 0.00, 10:47:50.472
241, 3539.53, -187500.02, -187500.02, -155198.80, -187500.02, -111134.50, -187500.02, -187500.02, 0.00, 0.00, 0.00, 10:47:50.475
242, 4089.61, -187500.02, -187500.02, -155192.25, -187500.02, -111127.05, -187500.02, -187500.02, 0.00, 0.00, 0.00, 10:47:50.478
243, 4067.24, -187500.02, -187500.02, -155221.48, -187500.02, -111152.74, -187500.02, -187500.02, 0.00, 0.00, 0.00, 10:47:50.483
244, 3464.72, -187500.02, -187500.02, -155249.48, -187500.02, -111178.00, -187500.02, -187500.02, 0.00, 0.00, 0.00, 10:47:50.488
245, 3360.85, -187500.02, -187500.02, -155181.14, -187500.02, -111108.62, -187500.02, -187500.02, 0.00, 0.00, 0.00, 10:47:50.491
246, 3950.87, -187500.02, -187500.02, -155141.16, -187500.02, -111065.23, -187500.02, -187500.02, 0.00, 0.00, 0.00, 10:47:50.496
247, 4134.38, -187500.02, -187500.02, -155156.95, -187500.02, -111079.36, -187500.02, -187500.02, 0.00, 0.00, 0.00, 10:47:50.500
248, 3659.41, -187500.02, -187500.02, -155244.23, -187500.02, -111169.64, -187500.02, -187500.02, 0.00, 0.00, 0.00, 10:47:50.503
249, 3490.43, -187500.02, -187500.02, -155273.52, -187500.02, -111199.84, -187500.02, -187500.02, 0.08, -0.67, 0.74, 10:47:50.507
250, 3921.46, -187500.02, -187500.02, -155224.30, -187500.02, -111149.77, -187500.02, -187500.02, 0.00, 0.00, 0.00, 10:47:50.510
251, 4218.04, -187500.02, -187500.02, -155251.05, -187500.02, -111175.23, -187500.02, -187500.02, 0.00, 0.00, 0.00, 10:47:50.516
252, 3734.37, -187500.02, -187500.02, -155320.23, -187500.02, -111246.08, -187500.02, -187500.02, 0.00, 0.00, 0.00, 10:47:50.520
253, 3388.01, -187500.02, -187500.02, -155278.17, -187500.02, -111202.54, -187500.02, -187500.02, 0.00, 0.00, 0.00, 10:47:50.524
254, 3831.54, -187500.02, -187500.02, -155238.06, -187500.02, -111159.83, -187500.02, -187500.02, 0.00, 0.00, 0.00, 10:47:50.527
255, 4191.00, -187500.02, -187500.02, -155212.88, -187500.02, -111133.85, -187500.02, -187500.02, 0.00, 0.00, 0.00, 10:47:50.532
0, 3838.91, -187500.02, -187500.02, -155268.16, -187500.02, -111188.05, -187500.02, -187500.02, 0.00, 0.00, 0.00, 10:47:50.535
1, 3381.93, -187500.02, -187500.02, -155267.66, -187500.02, -111185.22, -187500.02, -187500.02, 0.00, 0.00, 0.00, 10:47:50.539
2, 3725.21, -187500.02, -187500.02, -155241.94, -187500.02, -111153.55, -187500.02, -187500.02, 0.00, 0.00, 0.00, 10:47:50.544
3, 4107.78, -187500.02, -187500.02, -155193.23, -187500.02, -111105.42, -187500.02, -187500.02, 0.07, -0.68, 0.75, 10:47:50.548
4, 3904.25, -187500.02, -187500.02, -155214.06, -187500.02, -111125.34, -187500.02, -187500.02, 0.00, 0.00, 0.00, 10:47:50.552
5, 3478.13, -187500.02, -187500.02, -155296.61, -187500.02, -111210.30, -187500.02, -187500.02, 0.00, 0.00, 0.00, 10:47:50.555
6, 3661.13, -187500.02, -187500.02, -155280.30, -187500.02, -111194.11, -187500.02, -187500.02, 0.00, 0.00, 0.00, 10:47:50.559
7, 4074.81, -187500.02, -187500.02, -155187.95, -187500.02, -111101.04, -187500.02, -187500.02, 0.00, 0.00, 0.00, 10:47:50.562
8, 4013.61, -187500.02, -187500.02, -155186.19, -187500.02, -111097.46, -187500.02, -187500.02, 0.00, 0.00, 0.00, 10:47:50.567
9, 3631.55, -187500.02, -187500.02, -155311.92, -187500.02, -111222.97, -187500.02, -187500.02, 0.00, 0.00, 0.00, 10:47:50.572
10, 3656.92, -187500.02, -187500.02, -155317.89, -187500.02, -111224.96, -187500.02, -187500.02, 0.00, 0.00, 0.00, 10:47:50.576
11, 4144.59, -187500.02, -187500.02, -155278.13, -187500.02, -111178.35, -187500.02, -187500.02, 0.00, 0.00, 0.00, 10:47:50.580
12, 4100.70, -187500.02, -187500.02, -155249.47, -187500.02, -111147.55, -187500.02, -187500.02, 0.00, 0.00, 0.00, 10:47:50.583
13, 3572.43, -187500.02, -187500.02, -155296.50, -187500.02, -111196.82, -187500.02, -187500.02, 0.07, -0.67, 0.74, 10:47:50.588
14, 3484.84, -187500.02, -187500.02, -155271.02, -187500.02, -111172.59, -187500.02, -187500.02, 0.00, 0.00, 0.00, 10:47:50.591
15, 4007.47, -187500.02, -187500.02, -155215.22, -187500.02, -111115.91, -187500.02, -187500.02, 0.00, 0.00, 0.00, 10:47:50.595
16, 4215.99, -187500.02, -187500.02, -155233.47, -187500.02, -111132.87, -187500.02, -187500.02, 0.00, 0.00, 0.00, 10:47:50.599
17, 3721.21, -187500.02, -187500.02, -155313.59, -187500.02, -111215.03, -187500.02, -187500.02, 0.00, 0.00, 0.00, 10:47:50.604
18, 3463.45, -187500.02, -187500.02, -155307.25, -187500.02, -111209.23, -187500.02, -187500.02, 0.00, 0.00, 0.00, 10:47:50.608
19, 3897.61, -187500.02, -187500.02, -155249.83, -187500.02, -111148.88, -187500.02, -187500.02, 0.00, 0.00, 0.00, 10:47:50.611
20, 4174.59, -187500.02, -187500.02, -155230.48, -187500.02, -111130.01, -187500.02, -187500.02, 0.00, 0.00, 0.00, 10:47:50.615
21, 3707.30, -187500.02, -187500.02, -155259.72, -187500.02, -111160.88, -187500.02, -187500.02, 0.00, 0.00, 0.00, 10:47:50.619
22, 3388.86, -187500.02, -187500.02, -155259.95, -187500.02, -111160.25, -187500.02, -187500.02, 0.08, -0.67, 0.74, 10:47:50.623
23, 3758.92, -187500.02, -187500.02, -155191.67, -187500.02, -111091.07, -187500.02, -187500.02, 0.00, 0.00, 0.00, 10:47:50.628
24, 4192.52, -187500.02, -187500.02, -155164.73, -187500.02, -111058.98, -187500.02, -187500.02, 0.00, 0.00, 0.00, 10:47:50.632
25, 3954.00, -187500.02, -187500.02, -155264.42, -187500.02, -111156.72, -187500.02, -187500.02, 0.00, 0.00, 0.00, 10:47:50.636
26, 3531.46, -187500.02, -187500.02, -155348.34, -187500.02, -111244.41, -187500.02, -187500.02, 0.00, 0.00, 0.00, 10:47:50.640
27, 3717.16, -187500.02, -187500.02, -155270.33, -187500.02, -111162.44, -187500.02, -187500.02, 0.00, 0.00, 0.00, 10:47:50.643
28, 4164.73, -187500.02, -187500.02, -155229.73, -187500.02, -111121.29, -187500.02, -187500.02, 0.00, 0.00, 0.00, 10:47:50.647
29, 3946.04, -187500.02, -187500.02, -155246.03, -187500.02, -111137.88, -187500.02, -187500.02, 0.00, 0.00, 0.00, 10:47:50.651
30, 3496.91, -187500.02, -187500.02, -155308.00, -187500.02, -111200.98, -187500.02, -187500.02, 0.00, 0.00, 0.00, 10:47:50.655
31, 3702.45, -187500.02, -187500.02, -155331.00, -187500.02, -111227.84, -187500.02, -187500.02, 0.00, 0.00, 0.00, 10:47:50.660
32, 4105.50, -187500.02, -187500.02, -155258.44, -187500.02, -111154.20, -187500.02, -187500.02, 0.07, -0.66, 0.75, 10:47:50.665
33, 4013.23, -187500.02, -187500.02, -155249.94, -187500.02, -111142.68, -187500.02, -187500.02, 0.00, 0.00, 0.00, 10:47:50.667
34, 3507.52, -187500.02, -187500.02, -155317.28, -187500.02, -111209.80, -187500.02, -187500.02, 0.00, 0.00, 0.00, 10:47:50.671
35, 3548.25, -187500.02, -187500.02, -155310.73, -187500.02, -111203.19, -187500.02, -187500.02, 0.00, 0.00, 0.00, 10:47:50.675
36, 4054.70, -187500.02, -187500.02, -155259.08, -187500.02, -111149.37, -187500.02, -187500.02, 0.00, 0.00, 0.00, 10:47:50.679
37, 4174.32, -187500.02, -187500.02, -155296.31, -187500.02, -111187.54, -187500.02, -187500.02, 0.00, 0.00, 0.00, 10:47:50.683
38, 3651.09, -187500.02, -187500.02, -155381.97, -187500.02, -111274.34, -187500.02, -187500.02, 0.00, 0.00, 0.00, 10:47:50.688
39, 3489.02, -187500.02, -187500.02, -155350.08, -187500.02, -111242.21, -187500.02, -187500.02, 0.00, 0.00, 0.00, 10:47:50.691
40, 3944.05, -187500.02, -187500.02, -155265.81, -187500.02, -111158.30, -187500.02, -187500.02, 0.00, 0.00, 0.00, 10:47:50.695
41, 4168.44, -187500.02, -187500.02, -155267.22, -187500.02, -111158.38, -187500.02, -187500.02, 0.00, 0.00, 0.00, 10:47:50.699
42, 3771.25, -187500.02, -187500.02, -155355.73, -187500.02, -111250.22, -187500.02, -187500.02, 0.07, -0.66, 0.76, 10:47:50.704
43, 3550.42, -187500.02, -187500.02, -155407.11, -187500.02, -111305.45, -187500.02, -187500.02, 0.00, 0.00, 0.00, 10:47:50.707
44, 3938.47, -187500.02, -187500.02, -155337.67, -187500.02, -111233.25, -187500.02, -187500.02, 0.00, 0.00, 0.00, 10:47:50.711
45, 4226.25, -187500.02, -187500.02, -155323.81, -187500.02, -111214.77, -187500.02, -187500.02, 0.00, 0.00, 0.00, 10:47:50.716
46, 3802.97, -187500.02, -187500.02, -155357.78, -187500.02, -111250.35, -187500.02, -187500.02, 0.00, 0.00, 0.00, 10:47:50.719
47, 3482.80, -187500.02, -187500.02, -155381.34, -187500.02, -111277.55, -187500.02, -187500.02, 0.00, 0.00, 0.00, 10:47:50.723
48, 3852.39, -187500.02, -187500.02, -155334.47, -187500.02, -111231.28, -187500.02, -187500.02, 0.00, 0.00, 0.00, 10:47:50.728
49, 4227.14, -187500.02, -187500.02, -155293.98, -187500.02, -111188.55, -187500.02, -187500.02, 0.00, 0.00, 0.00, 10:47:50.731
50, 3907.31, -187500.02, -187500.02, -155329.84, -187500.02, -111223.35, -187500.02, -187500.02, 0.00, 0.00, 0.00, 10:47:50.735
51, 3435.82, -187500.02, -187500.02, -155345.38, -187500.02, -111240.09, -187500.02, -187500.02, 0.00, 0.00, 0.00, 10:47:50.740
52, 3683.21, -187500.02, -187500.02, -155274.25, -187500.02, -111168.32, -187500.02, -187500.02, 0.07, -0.66, 0.77, 10:47:50.743
53, 4227.61, -187500.02, -187500.02, -155274.14, -187500.02, -111168.30, -187500.02, -187500.02, 0.00, 0.00, 0.00, 10:47:50.747
54, 4065.02, -187500.02, -187500.02, -155326.00, -187500.02, -111221.63, -187500.02, -187500.02, 0.00, 0.00, 0.00, 10:47:50.750
55, 3544.23, -187500.02, -187500.02, -155368.17, -187500.02, -111263.41, -187500.02, -187500.02, 0.00, 0.00, 0.00, 10:47:50.755
56, 3645.64, -187500.02, -187500.02, -155321.91, -187500.02, -111217.00, -187500.02, -187500.02, 0.00, 0.00, 0.00, 10:47:50.759
57, 4146.65, -187500.02, -187500.02, -155253.22, -187500.02, -111146.80, -187500.02, -187500.02, 0.00, 0.00, 0.00, 10:47:50.763
58, 4129.19, -187500.02, -187500.02, -155267.44, -187500.02, -111158.62, -187500.02, -187500.02, 0.00, 0.00, 0.00, 10:47:50.767
59, 3645.64, -187500.02, -187500.02, -155353.78, -187500.02, -111245.77, -187500.02, -187500.02, 0.00, 0.00, 0.00, 10:47:50.772
60, 3676.48, -187500.02, -187500.02, -155360.69, -187500.02, -111250.66, -187500.02, -187500.02, 0.00, 0.00, 0.00, 10:47:50.776
61, 4199.29, -187500.02, -187500.02, -155323.97, -187500.02, -111213.07, -187500.02, -187500.02, 0.00, 0.00, 0.00, 10:47:50.778
62, 4316.35, -187500.02, -187500.02, -155356.00, -187500.02, -111243.45, -187500.02, -187500.02, 0.07, -0.66, 0.77, 10:47:50.783
63, 3723.09, -187500.02, -187500.02, -155378.09, -187500.02, -111262.15, -187500.02, -187500.02, 0.00, 0.00, 0.00, 10:47:50.788
64, 3614.03, -187500.02, -187500.02, -155397.72, -187500.02, -111278.45, -187500.02, -187500.02, 0.00, 0.00, 0.00, 10:47:50.791
65, 4048.66, -187500.02, -187500.02, -155341.47, -187500.02, -111216.40, -187500.02, -187500.02, 0.00, 0.00, 0.00, 10:47:50.795
66, 4204.59, -187500.02, -187500.02, -155281.83, -187500.02, -111152.25, -187500.02, -187500.02, 0.00, 0.00, 0.00, 10:47:50.800
67, 3780.73, -187500.02, -187500.02, -155325.16, -187500.02, -111197.55, -187500.02, -187500.02, 0.00, 0.00, 0.00, 10:47:50.802
68, 3578.96, -187500.02, -187500.02, -155389.95, -187500.02, -111264.23, -187500.02, -187500.02, 0.00, 0.00, 0.00, 10:47:50.806
69, 3949.80, -187500.02, -187500.02, -155337.44, -187500.02, -111208.69, -187500.02, -187500.02, 0.00, 0.00, 0.00, 10:47:50.811
70, 4249.89, -187500.02, -187500.02, -155287.38, -187500.02, -111154.04, -187500.02, -187500.02, 0.00, 0.00, 0.00, 10:47:50.816
71, 3943.29, -187500.02, -187500.02, -155366.50, -187500.02, -111235.60, -187500.02, -187500.02, 0.07, -0.65, 0.77, 10:47:50.819
72, 3567.14, -187500.02, -187500.02, -155404.36, -187500.02, -111274.96, -187500.02, -187500.02, 0.00, 0.00, 0.00, 10:47:50.823
73, 3926.28, -187500.02, -187500.02, -155377.77, -187500.02, -111246.55, -187500.02, -187500.02, 0.00, 0.00, 0.00, 10:47:50.826
74, 4320.68, -187500.02, -187500.02, -155334.73, -187500.02, -111204.59, -187500.02, -187500.02, 0.00, 0.00, 0.00, 10:47:50.830
75, 4049.40, -187500.02, -187500.02, -155354.09, -187500.02, -111226.39, -187500.02, -187500.02, 0.00, 0.00, 0.00, 10:47:50.835
76, 3564.07, -187500.02, -187500.02, -155389.20, -187500.02, -111259.47, -187500.02, -187500.02, 0.00, 0.00, 0.00, 10:47:50.840
77, 3775.37, -187500.02, -187500.02, -155365.11, -187500.02, -111233.16, -187500.02, -187500.02, 0.00, 0.00, 0.00, 10:47:50.843
78, 4186.73, -187500.02, -187500.02, -155290.97, -187500.02, -111157.32, -187500.02, -187500.02, 0.00, 0.00, 0.00, 10:47:50.847
79, 4062.94, -187500.02, -187500.02, -155317.95, -187500.02, -111183.20, -187500.02, -187500.02, 0.00, 0.00, 0.00, 10:47:50.851
80, 3549.73, -187500.02, -187500.02, -155360.44, -187500.02, -111226.21, -187500.02, -187500.02, 0.00, 0.00, 0.00, 10:47:50.855
81, 3664.41, -187500.02, -187500.02, -155332.23, -187500.02, -111196.21, -187500.02, -187500.02, 0.07, -0.65, 0.77, 10:47:50.858
82, 4207.69, -187500.02, -187500.02, -155330.69, -187500.02, -111191.59, -187500.02, -187500.02, 0.00, 0.00, 0.00, 10:47:50.862
83, 4133.93, -187500.02, -187500.02, -155301.91, -187500.02, -111160.81, -187500.02, -187500.02, 0.00, 0.00, 0.00, 10:47:50.867
84, 3670.72, -187500.02, -187500.02, -155376.14, -187500.02, -111237.74, -187500.02, -187500.02, 0.00, 0.00, 0.00, 10:47:50.872
85, 3649.73, -187500.02, -187500.02, -155402.38, -187500.02, -111268.23, -187500.02, -187500.02, 0.00, 0.00, 0.00, 10:47:50.876
86, 4133.06, -187500.02, -187500.02, -155332.91, -187500.02, -111196.48, -187500.02, -187500.02, 0.00, 0.00, 0.00, 10:47:50.879
87, 4306.71, -187500.02, -187500.02, -155350.75, -187500.02, -111211.57, -187500.02, -187500.02, 0.00, 0.00, 0.00, 10:47:50.882
88, 3823.69, -187500.02, -187500.02, -155415.56, -187500.02, -111276.26, -187500.02, -187500.02, 0.00, 0.00, 0.00, 10:47:50.887
