%OpenBCI Raw EEG Data
%
%Sample Rate = 250.0 Hz
%First Column = SampleIndex
%Last Column = Timestamp 
%Other Columns = EEG data in microvolts followed by Accel Data (in G) interleaved with Aux Data
0, 35067.50, -39740.71, -3886.28, -82853.96, -38162.92, -1938.23, 324.86, -148912.22, 0.00, -0.23, 0.44, 11:18:26.944
1, 33491.76, -39904.99, -4054.92, -83020.61, -38331.36, -2098.29, 157.74, -149083.69, 0.00, 0.00, 0.00, 11:18:26.946
2, 32112.50, -40023.79, -4174.30, -83129.80, -38449.76, -2204.69, 40.57, -149203.91, 0.00, 0.00, 0.00, 11:18:26.950
3, 33280.70, -39888.27, -4031.18, -82984.07, -38306.95, -2059.42, 186.93, -149062.44, 0.00, 0.00, 0.00, 11:18:26.955
4, 34982.65, -39734.61, -3871.19, -82832.26, -38149.93, -1906.02, 349.22, -148907.36, 0.00, 0.00, 0.00, 11:18:26.959
5, 33808.89, -39866.35, -4004.52, -82967.41, -38287.13, -2041.32, 216.88, -149046.25, 0.00, 0.00, 0.00, 11:18:26.964
6, 32130.63, -40025.49, -4164.22, -83119.30, -38449.02, -2193.29, 58.56, -149208.53, 0.01, -0.46, 0.91, 11:18:26.968
7, 32854.65, -39923.30, -4057.56, -83010.27, -38344.37, -2085.46, 166.99, -149103.61, 0.00, 0.00, 0.00, 11:18:26.971
8, 34743.73, -39702.48, -3830.51, -82793.61, -38122.22, -1870.01, 395.72, -148882.42, 0.00, 0.00, 0.00, 11:18:26.976
9, 34068.10, -39784.41, -3916.36, -82887.66, -38211.89, -1959.09, 311.87, -148974.13, 0.00, 0.00, 0.00, 11:18:26.978
10, 32185.55, -39979.04, -4116.43, -83082.68, -38409.77, -2147.56, 116.32, -149174.52, 0.00, 0.00, 0.00, 11:18:26.982
11, 32478.71, -39943.53, -4077.72, -83042.38, -38368.46, -2102.87, 157.96, -149136.63, 0.00, 0.00, 0.00, 11:18:26.986
12, 34509.55, -39732.77, -3860.30, -82838.02, -38151.61, -1892.77, 376.14, -148924.19, 0.00, 0.00, 0.00, 11:18:26.992
13, 34426.29, -39795.56, -3921.46, -82911.31, -38215.16, -1961.21, 314.13, -148992.83, 0.00, 0.00, 0.00, 11:18:26.995
14, 32440.72, -40040.40, -4168.40, -83152.38, -38461.47, -2201.27, 67.41, -149244.52, 0.00, 0.00, 0.00, 11:18:26.999
15, 32220.37, -40052.02, -4175.55, -83154.77, -38465.65, -2202.43, 61.24, -149255.16, 0.00, 0.00, 0.00, 11:18:27.003
16, 34185.05, -39846.43, -3960.37, -82949.16, -38250.63, -1994.65, 275.57, -149045.56, 0.02, -0.46, 0.91, 11:18:27.007
17, 34650.14, -39818.22, -3929.86, -82930.60, -38222.64, -1973.37, 304.45, -149021.88, 0.00, 0.00, 0.00, 11:18:27.011
18, 32673.42, -40009.00, -4122.13, -83123.01, -38414.69, -2164.19, 111.38, -149219.39, 0.00, 0.00, 0.00, 11:18:27.014
19, 32009.26, -40087.34, -4197.75, -83193.62, -38489.01, -2233.77, 34.44, -149298.25, 0.00, 0.00, 0.00, 11:18:27.019
20, 33715.46, -39868.52, -3970.45, -82972.18, -38266.34, -2015.59, 261.16, -149077.44, 0.00, 0.00, 0.00, 11:18:27.024
21, 34719.03, -39772.74, -3869.85, -82886.50, -38173.71, -1929.98, 360.38, -148986.48, 0.00, 0.00, 0.00, 11:18:27.027
22, 32983.82, -40022.54, -4122.51, -83138.85, -38430.07, -2179.43, 108.36, -149244.50, 0.00, 0.00, 0.00, 11:18:27.031
23, 31856.35, -40132.76, -4232.03, -83239.21, -38539.08, -2280.01, 0.96, -149355.02, 0.00, 0.00, 0.00, 11:18:27.035
24, 33275.31, -39942.77, -4032.86, -83044.33, -38341.22, -2086.02, 201.95, -149157.50, 0.00, 0.00, 0.00, 11:18:27.042
25, 34722.47, -39789.46, -3874.72, -82897.97, -38185.09, -1939.17, 360.58, -149005.16, 0.00, 0.00, 0.00, 11:18:27.043
26, 33258.86, -39962.10, -4049.80, -83075.09, -38363.19, -2112.71, 184.38, -149186.06, 0.01, -0.46, 0.90, 11:18:27.048
27, 31825.51, -40143.69, -4231.81, -83248.04, -38545.11, -2282.07, 3.46, -149368.64, 0.00, 0.00, 0.00, 11:18:27.051
28, 32851.68, -39999.27, -4080.29, -83094.98, -38395.36, -2127.57, 156.46, -149217.61, 0.00, 0.00, 0.00, 11:18:27.054
29, 34619.77, -39797.48, -3870.94, -82897.50, -38191.75, -1928.33, 366.59, -149011.86, 0.00, 0.00, 0.00, 11:18:27.059
30, 33608.48, -39944.85, -4018.93, -83051.57, -38345.55, -2077.84, 217.62, -149163.38, 0.00, 0.00, 0.00, 11:18:27.063
31, 31864.71, -40138.30, -4214.06, -83239.03, -38541.29, -2263.90, 23.18, -149359.31, 0.00, 0.00, 0.00, 11:18:27.067
32, 32454.84, -40058.71, -4130.13, -83150.19, -38454.81, -2175.52, 110.62, -149274.98, 0.00, 0.00, 0.00, 11:18:27.070
33, 34424.17, -39844.06, -3909.03, -82939.25, -38236.28, -1962.37, 334.40, -149056.89, 0.00, 0.00, 0.00, 11:18:27.075
34, 33909.23, -39919.41, -3983.77, -83025.30, -38316.84, -2042.06, 258.30, -149139.17, 0.00, 0.00, 0.00, 11:18:27.079
35, 31947.39, -40100.21, -4167.13, -83205.57, -38502.31, -2216.02, 75.50, -149323.84, 0.00, 0.00, 0.00, 11:18:27.082
36, 32090.67, -40092.57, -4157.74, -83192.32, -38494.38, -2198.34, 86.08, -149314.16, 0.01, -0.46, 0.90, 11:18:27.087
37, 34115.27, -39895.43, -3955.72, -82998.93, -38292.89, -2000.75, 290.84, -149115.92, 0.00, 0.00, 0.00, 11:18:27.091
38, 34171.88, -39914.92, -3977.47, -83028.88, -38315.74, -2027.71, 270.88, -149145.25, 0.00, 0.00, 0.00, 11:18:27.095
39, 32172.12, -40119.68, -4186.97, -83234.07, -38526.02, -2227.66, 63.05, -149359.25, 0.00, 0.00, 0.00, 11:18:27.100
40, 31802.98, -40117.51, -4181.05, -83225.45, -38519.34, -2212.40, 71.39, -149353.72, 0.00, 0.00, 0.00, 11:18:27.103
41, 33721.67, -39911.88, -3969.80, -83021.51, -38307.02, -2003.86, 287.13, -149145.05, 0.00, 0.00, 0.00, 11:18:27.107
42, 34347.05, -39863.26, -3923.98, -82986.34, -38259.97, -1964.03, 335.88, -149104.28, 0.00, 0.00, 0.00, 11:18:27.110
43, 32426.30, -40073.57, -4140.41, -83203.78, -38476.61, -2175.65, 119.60, -149324.83, 0.00, 0.00, 0.00, 11:18:27.115
44, 31609.52, -40131.39, -4194.95, -83255.06, -38531.23, -2223.53, 65.74, -149380.88, 0.00, 0.00, 0.00, 11:18:27.119
45, 33276.23, -39927.75, -3982.16, -83049.80, -38320.19, -2013.71, 278.97, -149171.33, 0.00, 0.00, 0.00, 11:18:27.122
46, 34434.61, -39823.23, -3874.81, -82957.06, -38214.91, -1914.81, 388.00, -149067.89, 0.01, -0.45, 0.90, 11:18:27.128
47, 32724.56, -40010.09, -4063.88, -83151.19, -38406.71, -2101.29, 198.39, -149259.94, 0.00, 0.00, 0.00, 11:18:27.131
48, 31533.26, -40142.19, -4194.71, -83279.06, -38537.16, -2223.35, 67.50, -149390.63, 0.00, 0.00, 0.00, 11:18:27.135
49, 32873.45, -39976.96, -4020.99, -83109.64, -38362.39, -2052.83, 242.43, -149218.61, 0.00, 0.00, 0.00, 11:18:27.138
50, 34417.33, -39811.88, -3850.45, -82951.59, -38193.18, -1892.84, 415.43, -149052.63, 0.00, 0.00, 0.00, 11:18:27.143
51, 33029.75, -39957.96, -3998.75, -83103.83, -38345.45, -2043.33, 267.82, -149204.22, 0.00, 0.00, 0.00, 11:18:27.146
52, 31480.71, -40117.51, -4158.65, -83259.04, -38508.16, -2194.14, 107.82, -149364.05, 0.00, 0.00, 0.00, 11:18:27.151
53, 32459.87, -40024.91, -4057.69, -83158.92, -38408.70, -2089.42, 209.79, -149264.28, 0.00, 0.00, 0.00, 11:18:27.156
54, 34355.84, -39875.80, -3902.15, -83014.47, -38254.68, -1943.19, 366.39, -149112.91, 0.00, 0.00, 0.00, 11:18:27.158
55, 33435.04, -39988.75, -4016.14, -83132.70, -38371.08, -2059.67, 251.30, -149231.58, 0.02, -0.45, 0.90, 11:18:27.162
56, 31626.51, -40178.60, -4208.10, -83318.92, -38565.45, -2242.75, 58.76, -149426.59, 0.00, 0.00, 0.00, 11:18:27.166
57, 32101.71, -40095.77, -4117.84, -83229.38, -38477.70, -2152.00, 147.75, -149339.52, 0.00, 0.00, 0.00, 11:18:27.171
58, 34082.81, -39878.02, -3891.59, -83014.09, -38254.63, -1934.90, 373.99, -149116.28, 0.00, 0.00, 0.00, 11:18:27.175
59, 33706.38, -39945.18, -3959.57, -83089.43, -38326.18, -2008.10, 306.17, -149188.20, 0.00, 0.00, 0.00, 11:18:27.179
60, 31759.97, -40173.23, -4188.67, -83314.47, -38554.52, -2230.84, 77.07, -149420.44, 0.00, 0.00, 0.00, 11:18:27.183
61, 31798.33, -40176.77, -4187.17, -83305.66, -38551.28, -2222.32, 81.16, -149417.52, 0.00, 0.00, 0.00, 11:18:27.187
62, 33763.18, -39930.77, -3929.84, -83056.13, -38296.18, -1974.40, 338.67, -149163.38, 0.00, 0.00, 0.00, 11:18:27.190
63, 33937.23, -39916.68, -3912.87, -83048.89, -38282.41, -1967.98, 352.84, -149152.42, 0.00, 0.00, 0.00, 11:18:27.194
64, 31967.17, -40154.21, -4153.42, -83284.97, -38523.83, -2202.81, 109.39, -149397.36, 0.00, 0.00, 0.00, 11:18:27.198
65, 31511.02, -40183.05, -4179.66, -83303.98, -38549.52, -2221.58, 82.41, -149424.06, 0.02, -0.47, 0.89, 11:18:27.203
66, 33393.55, -39987.63, -3976.96, -83104.38, -38347.34, -2022.36, 287.31, -149222.63, 0.00, 0.00, 0.00, 11:18:27.207
67, 34112.76, -39916.19, -3903.08, -83040.08, -38275.28, -1954.91, 363.39, -149153.13, 0.00, 0.00, 0.00, 11:18:27.211
68, 32193.42, -40106.38, -4095.09, -83229.60, -38467.29, -2142.17, 171.64, -149347.41, 0.00, 0.00, 0.00, 11:18:27.214
69, 31310.28, -40202.65, -4189.25, -83315.45, -38558.64, -2227.51, 78.12, -149441.19, 0.00, 0.00, 0.00, 11:18:27.218
70, 32939.34, -40034.23, -4014.33, -83141.09, -38379.48, -2053.25, 255.99, -149266.28, 0.00, 0.00, 0.00, 11:18:27.222
71, 34213.25, -39934.23, -3909.41, -83045.16, -38275.39, -1957.19, 359.68, -149165.81, 0.00, 0.00, 0.00, 11:18:27.226
72, 32602.28, -40151.24, -4127.50, -83260.23, -38495.83, -2172.01, 139.56, -149387.55, 0.00, 0.00, 0.00, 11:18:27.231
73, 31305.47, -40295.90, -4268.07, -83390.78, -38637.00, -2302.41, -3.44, -149528.36, 0.00, 0.00, 0.00, 11:18:27.235
74, 32526.68, -40120.42, -4082.14, -83203.94, -38450.90, -2119.03, 180.18, -149344.14, 0.00, 0.00, 0.00, 11:18:27.240
75, 34130.55, -39923.28, -3878.03, -83009.46, -38248.44, -1927.70, 383.65, -149144.94, 0.02, -0.46, 0.90, 11:18:27.242
76, 32851.05, -40065.41, -4023.11, -83158.03, -38396.41, -2075.27, 236.57, -149294.72, 0.00, 0.00, 0.00, 11:18:27.246
77, 31231.78, -40243.91, -4202.62, -83331.10, -38577.25, -2246.55, 56.13, -149475.98, 0.00, 0.00, 0.00, 11:18:27.250
78, 32070.30, -40139.84, -4091.62, -83218.54, -38466.88, -2133.79, 166.45, -149368.61, 0.00, 0.00, 0.00, 11:18:27.254
79, 33978.85, -39946.14, -3892.33, -83028.30, -38268.69, -1946.14, 364.85, -149175.47, 0.00, 0.00, 0.00, 11:18:27.259
80, 33196.07, -40058.93, -4007.60, -83147.62, -38384.61, -2066.49, 248.48, -149295.83, 0.00, 0.00, 0.00, 11:18:27.263
81, 31364.55, -40280.73, -4230.94, -83362.23, -38607.05, -2282.22, 22.49, -149521.28, 0.00, 0.00, 0.00, 11:18:27.267
82, 31737.64, -40233.43, -4175.51, -83300.70, -38551.55, -2224.04, 74.88, -149466.53, 0.00, 0.00, 0.00, 11:18:27.270
83, 33695.34, -39981.26, -3914.59, -83048.26, -38293.70, -1972.50, 337.24, -149209.78, 0.00, 0.00, 0.00, 11:18:27.274
84, 33470.02, -40033.92, -3968.91, -83110.55, -38351.21, -2030.61, 283.22, -149269.50, 0.00, 0.00, 0.00, 11:18:27.278
85, 31516.85, -40270.33, -4207.98, -83345.05, -38591.09, -2261.37, 42.71, -149511.34, 0.02, -0.46, 0.90, 11:18:27.283
86, 31398.86, -40259.49, -4191.29, -83324.69, -38574.77, -2237.74, 57.51, -149496.47, 0.00, 0.00, 0.00, 11:18:27.287
87, 33369.43, -40031.28, -3954.11, -83096.70, -38338.87, -2006.92, 291.49, -149263.20, 0.00, 0.00, 0.00, 11:18:27.291
88, 33727.48, -40037.32, -3959.92, -83110.66, -38344.66, -2014.83, 283.93, -149273.61, 0.00, 0.00, 0.00, 11:18:27.294
89, 31750.76, -40267.23, -4194.95, -83339.80, -38577.01, -2235.04, 50.05, -149509.06, 0.00, 0.00, 0.00, 11:18:27.298
90, 31160.52, -40301.56, -4226.87, -83365.48, -38605.42, -2255.96, 20.00, -149540.47, 0.00, 0.00, 0.00, 11:18:27.302
91, 32964.69, -40104.15, -4019.11, -83165.63, -38398.42, -2052.90, 227.50, -149335.55, 0.00, 0.00, 0.00, 11:18:27.306
92, 33836.74, -40011.39, -3923.09, -83081.79, -38305.19, -1964.07, 323.77, -149243.80, 0.00, 0.00, 0.00, 11:18:27.311
93, 32009.91, -40212.89, -4128.17, -83288.48, -38513.11, -2165.17, 117.93, -149451.00, 0.00, 0.00, 0.00, 11:18:27.316
94, 30989.37, -40312.24, -4226.96, -83382.22, -38613.62, -2254.64, 19.98, -149547.77, 0.02, -0.46, 0.90, 11:18:27.320
95, 32527.17, -40157.79, -4065.02, -83222.27, -38455.08, -2092.21, 183.04, -149386.19, 0.00, 0.00, 0.00, 11:18:27.322
96, 33879.52, -40027.03, -3928.52, -83097.34, -38324.23, -1963.27, 320.55, -149256.16, 0.00, 0.00, 0.00, 11:18:27.326
97, 32326.41, -40209.76, -4114.98, -83286.09, -38512.66, -2145.68, 134.13, -149446.11, 0.00, 0.00, 0.00, 11:18:27.330
98, 30948.00, -40366.51, -4272.09, -83436.55, -38671.69, -2290.00, -22.66, -149603.22, 0.00, 0.00, 0.00, 11:18:27.335
99, 32116.04, -40244.29, -4142.98, -83306.47, -38543.59, -2155.96, 105.37, -149476.13, 0.00, 0.00, 0.00, 11:18:27.339
100, 33790.43, -40040.62, -3932.70, -83106.84, -38336.17, -1952.78, 315.67, -149269.44, 0.00, 0.00, 0.00, 11:18:27.343
101, 32622.97, -40164.00, -4056.73, -83235.45, -38465.92, -2077.82, 190.86, -149396.78, 0.00, 0.00, 0.00, 11:18:27.347
102, 30946.44, -40346.57, -4238.27, -83410.92, -38647.93, -2250.31, 8.90, -149578.63, 0.00, 0.00, 0.00, 11:18:27.351
103, 31697.07, -40279.86, -4164.40, -83334.05, -38573.68, -2171.94, 84.51, -149504.36, 0.00, 0.00, 0.00, 11:18:27.355
104, 33662.42, -40101.26, -3977.92, -83155.73, -38389.88, -1989.57, 273.45, -149320.41, 0.02, -0.47, 0.90, 11:18:27.359
105, 32995.82, -40193.35, -4069.89, -83251.95, -38487.16, -2080.57, 181.36, -149416.73, 0.00, 0.00, 0.00, 11:18:27.362
106, 31083.36, -40402.79, -4280.85, -83454.86, -38700.73, -2276.10, -27.81, -149626.42, 0.00, 0.00, 0.00, 11:18:27.367
107, 31316.36, -40351.96, -4225.22, -83393.06, -38644.02, -2211.28, 30.24, -149569.22, 0.00, 0.00, 0.00, 11:18:27.371
108, 33317.46, -40122.65, -3989.45, -83163.89, -38410.15, -1981.28, 268.65, -149335.67, 0.00, 0.00, 0.00, 11:18:27.375
109, 33242.36, -40167.78, -4034.94, -83215.95, -38461.47, -2030.92, 223.61, -149386.73, 0.00, 0.00, 0.00, 11:18:27.379
110, 31250.84, -40379.30, -4247.95, -83423.48, -38678.66, -2237.10, 9.70, -149602.44, 0.00, 0.00, 0.00, 11:18:27.382
111, 31055.24, -40404.49, -4270.05, -83436.09, -38700.46, -2249.90, -11.20, -149622.91, 0.00, 0.00, 0.00, 11:18:27.386
112, 33002.21, -40209.60, -4067.35, -83233.60, -38498.02, -2048.83, 193.34, -149422.45, 0.00, 0.00, 0.00, 11:18:27.390
113, 33479.63, -40167.54, -4024.52, -83197.13, -38457.80, -2012.48, 235.68, -149386.00, 0.00, 0.00, 0.00, 11:18:27.394
114, 31542.63, -40394.47, -4256.93, -83422.81, -38690.36, -2237.57, 3.08, -149620.05, 0.02, -0.47, 0.90, 11:18:27.399
115, 30851.04, -40462.36, -4323.36, -83479.67, -38755.51, -2295.95, -63.75, -149687.02, 0.00, 0.00, 0.00, 11:18:27.402
116, 32622.39, -40293.98, -4148.66, -83305.15, -38579.63, -2123.57, 110.73, -149516.52, 0.00, 0.00, 0.00, 11:18:27.405
117, 33659.40, -40214.05, -4064.11, -83228.06, -38498.46, -2048.38, 195.04, -149438.19, 0.00, 0.00, 0.00, 11:18:27.410
118, 31899.67, -40416.76, -4268.65, -83429.16, -38704.30, -2249.84, -10.19, -149644.86, 0.00, 0.00, 0.00, 11:18:27.414
119, 30752.51, -40531.73, -4383.65, -83533.88, -38819.43, -2351.83, -124.43, -149757.78, 0.00, 0.00, 0.00, 11:18:27.419
120, 32179.89, -40352.81, -4195.96, -83349.18, -38634.30, -2164.25, 61.04, -149572.55, 0.00, 0.00, 0.00, 11:18:27.423
121, 33669.91, -40220.44, -4057.02, -83222.52, -38497.97, -2033.79, 197.28, -149441.20, 0.00, 0.00, 0.00, 11:18:27.426
122, 32199.86, -40393.98, -4231.79, -83400.41, -38673.21, -2204.40, 18.75, -149621.00, 0.00, 0.00, 0.00, 11:18:27.430
123, 30722.23, -40554.49, -4390.24, -83551.96, -38830.39, -2348.86, -142.02, -149781.27, 0.00, 0.00, 0.00, 11:18:27.434
124, 31760.33, -40415.24, -4242.12, -83402.05, -38680.00, -2195.72, 6.19, -149636.05, 0.02, -0.47, 0.90, 11:18:27.438
125, 33544.36, -40218.27, -4038.00, -83208.75, -38475.87, -1996.82, 212.81, -149436.36, 0.00, 0.00, 0.00, 11:18:27.442
126, 32544.50, -40379.50, -4201.28, -83375.24, -38639.66, -2157.70, 51.30, -149604.11, 0.00, 0.00, 0.00, 11:18:27.446
127, 30777.19, -40572.10, -4394.17, -83558.17, -38830.77, -2337.32, -140.53, -149796.64, 0.00, 0.00, 0.00, 11:18:27.450
128, 31365.75, -40476.35, -4289.12, -83449.38, -38727.30, -2227.89, -37.48, -149691.33, 0.00, 0.00, 0.00, 11:18:27.454
129, 33329.27, -40250.33, -4055.48, -83224.44, -38497.64, -2001.24, 195.26, -149459.98, 0.00, 0.00, 0.00, 11:18:27.458
130, 32819.36, -40322.61, -4132.44, -83304.62, -38576.74, -2079.14, 120.72, -149538.75, 0.00, 0.00, 0.00, 11:18:27.461
131, 30854.01, -40527.94, -4344.73, -83506.41, -38788.93, -2280.53, -87.86, -149749.06, 0.00, 0.00, 0.00, 11:18:27.466
132, 30996.41, -40513.90, -4328.26, -83480.92, -38769.23, -2254.37, -65.60, -149728.81, 0.00, 0.00, 0.00, 11:18:27.470
133, 33031.52, -40309.96, -4114.29, -83272.16, -38556.98, -2047.40, 148.82, -149518.30, 0.00, 0.00, 0.00, 11:18:27.474
134, 33080.40, -40319.42, -4122.67, -83287.58, -38569.59, -2062.66, 137.82, -149533.41, 0.03, -0.46, 0.90, 11:18:27.478
135, 31071.58, -40547.83, -4354.14, -83511.19, -38801.98, -2288.06, -95.31, -149767.34, 0.00, 0.00, 0.00, 11:18:27.483
136, 30717.20, -40566.94, -4369.74, -83517.94, -38817.94, -2296.62, -111.24, -149784.52, 0.00, 0.00, 0.00, 11:18:27.486
137, 32646.93, -40351.40, -4146.90, -83299.31, -38594.89, -2078.27, 112.97, -149565.27, 0.00, 0.00, 0.00, 11:18:27.489
138, 33267.29, -40317.09, -4111.38, -83271.11, -38560.29, -2050.26, 147.48, -149535.16, 0.00, 0.00, 0.00, 11:18:27.493
139, 31333.99, -40540.30, -4336.71, -83489.84, -38784.79, -2270.76, -80.35, -149764.91, 0.00, 0.00, 0.00, 11:18:27.499
140, 30521.71, -40626.51, -4421.42, -83561.05, -38866.69, -2344.41, -165.72, -149849.75, 0.00, 0.00, 0.00, 11:18:27.503
141, 32188.28, -40407.53, -4192.56, -83332.69, -38642.32, -2122.57, 59.86, -149626.69, 0.00, 0.00, 0.00, 11:18:27.507
142, 33356.63, -40306.36, -4084.92, -83234.59, -38542.59, -2030.77, 160.71, -149529.34, 0.00, 0.00, 0.00, 11:18:27.510
143, 31614.66, -40502.07, -4283.20, -83431.15, -38745.18, -2230.28, -42.31, -149733.66, 0.02, -0.46, 0.90, 11:18:27.513
144, 30356.75, -40608.02, -4387.42, -83524.24, -38848.79, -2331.31, -148.75, -149839.94, 0.00, 0.00, 0.00, 11:18:27.518
145, 31743.68, -40468.12, -4238.49, -83371.40, -38698.82, -2187.39, -0.74, -149693.56, 0.00, 0.00, 0.00, 11:18:27.522
146, 33338.70, -40320.24, -4085.85, -83223.23, -38546.10, -2045.99, 151.34, -149545.80, 0.00, 0.00, 0.00, 11:18:27.526
147, 31934.90, -40464.41, -4233.87, -83368.90, -38696.16, -2196.44, 0.83, -149698.66, 0.00, 0.00, 0.00, 11:18:27.531
148, 30367.75, -40627.54, -4398.60, -83522.34, -38860.72, -2355.67, -164.93, -149864.31, 0.00, 0.00, 0.00, 11:18:27.535
149, 31354.20, -40534.71, -4300.59, -83418.74, -38758.84, -2258.08, -66.94, -149766.77, 0.00, 0.00, 0.00, 11:18:27.538
150, 33225.55, -40340.52, -4101.59, -83224.59, -38558.01, -2069.75, 131.65, -149570.78, 0.00, 0.00, 0.00, 11:18:27.541
151, 32301.80, -40457.41, -4223.03, -83347.51, -38679.94, -2192.86, 9.34, -149695.48, 0.00, 0.00, 0.00, 11:18:27.545
152, 30434.89, -40633.48, -4401.42, -83516.33, -38856.72, -2362.69, -170.01, -149873.19, 0.00, 0.00, 0.00, 11:18:27.549
153, 30942.77, -40578.81, -4342.63, -83451.98, -38798.25, -2302.21, -112.92, -149813.91, 0.03, -0.46, 0.89, 11:18:27.555
154, 32956.44, -40343.36, -4100.56, -83219.84, -38559.33, -2072.34, 126.13, -149576.84, 0.00, 0.00, 0.00, 11:18:27.559
155, 32590.21, -40389.22, -4145.47, -83274.13, -38607.21, -2127.13, 78.72, -149628.31, 0.00, 0.00, 0.00, 11:18:27.562
156, 30595.49, -40619.71, -4377.63, -83497.62, -38842.08, -2354.22, -153.27, -149860.69, 0.00, 0.00, 0.00, 11:18:27.565
157, 30624.93, -40625.55, -4379.73, -83488.70, -38845.03, -2353.08, -155.70, -149862.67, 0.00, 0.00, 0.00, 11:18:27.570
158, 32669.11, -40402.95, -4151.32, -83263.64, -38618.45, -2136.09, 72.46, -149635.56, 0.00, 0.00, 0.00, 11:18:27.575
159, 32880.91, -40396.66, -4147.28, -83266.57, -38617.11, -2143.85, 76.69, -149635.11, 0.00, 0.00, 0.00, 11:18:27.579
160, 30839.80, -40612.43, -4366.19, -83480.66, -38837.29, -2361.93, -144.95, -149856.81, 0.00, 0.00, 0.00, 11:18:27.581
161, 30348.35, -40652.73, -4402.53, -83507.61, -38873.68, -2393.13, -184.45, -149893.91, 0.00, 0.00, 0.00, 11:18:27.585
162, 32239.17, -40435.42, -4174.99, -83283.80, -38648.85, -2172.63, 42.54, -149670.53, 0.00, 0.00, 0.00, 11:18:27.590
163, 33025.39, -40358.04, -4094.48, -83212.81, -38572.56, -2103.32, 124.01, -149597.22, 0.02, -0.46, 0.89, 11:18:27.594
164, 31129.54, -40583.84, -4324.37, -83437.49, -38804.68, -2330.71, -107.15, -149830.91, 0.00, 0.00, 0.00, 11:18:27.599
165, 30195.42, -40673.18, -4411.88, -83514.01, -38892.53, -2410.88, -196.29, -149918.70, 0.00, 0.00, 0.00, 11:18:27.603
166, 31825.22, -40487.08, -4218.31, -83318.41, -38698.96, -2221.12, -1.72, -149726.94, 0.00, 0.00, 0.00, 11:18:27.606
167, 33109.06, -40359.02, -4087.06, -83197.13, -38570.10, -2101.69, 128.54, -149601.66, 0.00, 0.00, 0.00, 11:18:27.610
168, 31432.18, -40542.89, -4276.18, -83386.42, -38757.95, -2289.89, -62.38, -149794.88, 0.00, 0.00, 0.00, 11:18:27.613
169, 30092.94, -40675.01, -4409.55, -83507.99, -38885.89, -2414.03, -195.15, -149928.03, 0.00, 0.00, 0.00, 11:18:27.617
170, 31382.36, -40542.02, -4269.83, -83364.12, -38742.25, -2275.72, -55.63, -149789.88, 0.00, 0.00, 0.00, 11:18:27.622
171, 33054.38, -40364.50, -4087.46, -83190.82, -38560.09, -2105.00, 124.68, -149613.36, 0.00, 0.00, 0.00, 11:18:27.626
172, 31798.13, -40535.87, -4264.13, -83366.66, -38739.08, -2284.62, -56.24, -149795.44, 0.00, 0.00, 0.00, 11:18:27.631
173, 30109.88, -40695.37, -4426.45, -83515.86, -38899.21, -2438.87, -220.81, -149958.05, 0.02, -0.47, 0.90, 11:18:27.633
174, 30942.44, -40576.95, -4302.40, -83387.80, -38772.61, -2314.14, -98.62, -149835.05, 0.00, 0.00, 0.00, 11:18:27.637
175, 32872.24, -40359.89, -4079.73, -83175.04, -38549.74, -2103.92, 120.65, -149617.66, 0.00, 0.00, 0.00, 11:18:27.642
176, 32073.28, -40450.29, -4172.33, -83274.82, -38644.06, -2202.79, 24.36, -149717.08, 0.00, 0.00, 0.00, 11:18:27.645
177, 30196.74, -40669.76, -4393.48, -83488.57, -38865.03, -2415.46, -201.70, -149942.30, 0.00, 0.00, 0.00, 11:18:27.649
178, 30584.65, -40643.11, -4362.19, -83449.99, -38833.54, -2378.90, -173.58, -149913.50, 0.00, 0.00, 0.00, 11:18:27.654
179, 32623.17, -40420.02, -4133.40, -83227.16, -38606.67, -2161.79, 52.79, -149689.14, 0.00, 0.00, 0.00, 11:18:27.659
180, 32396.19, -40454.22, -4167.42, -83268.65, -38645.63, -2206.41, 13.93, -149732.23, 0.00, 0.00, 0.00, 11:18:27.680
181, 30359.17, -40662.80, -4377.95, -83475.52, -38858.75, -2414.08, -201.88, -149948.45, 0.00, 0.00, 0.00, 11:18:27.680
182, 30268.60, -40687.17, -4399.31, -83490.05, -38879.94, -2430.44, -226.42, -149970.16, 0.00, 0.00, 0.00, 11:18:27.680
183, 32275.83, -40466.98, -4170.86, -83267.30, -38652.22, -2211.30, 0.74, -149745.11, 0.02, -0.46, 0.89, 11:18:27.680
184, 32602.57, -40411.37, -4109.73, -83221.82, -38596.70, -2163.81, 57.69, -149692.22, 0.00, 0.00, 0.00, 11:18:27.680
185, 30618.63, -40649.26, -4352.33, -83463.53, -38838.99, -2401.65, -187.93, -149937.19, 0.00, 0.00, 0.00, 11:18:27.681
186, 30017.56, -40712.85, -4417.31, -83521.80, -38899.50, -2457.35, -253.98, -150000.77, 0.00, 0.00, 0.00, 11:18:27.686
187, 31837.00, -40484.64, -4183.15, -83294.35, -38663.62, -2229.63, -21.73, -149768.78, 0.00, 0.00, 0.00, 11:18:27.690
188, 32767.34, -40402.99, -4100.14, -83223.84, -38579.38, -2158.26, 57.98, -149690.66, 0.00, 0.00, 0.00, 11:18:27.693
189, 30920.98, -40627.91, -4331.21, -83454.13, -38806.74, -2389.04, -174.54, -149925.75, 0.00, 0.00, 0.00, 11:18:27.698
190, 29861.66, -40724.96, -4429.04, -83545.59, -38900.95, -2481.58, -273.70, -150023.94, 0.00, 0.00, 0.00, 11:18:27.702
191, 31373.87, -40518.61, -4218.49, -83338.59, -38687.27, -2274.76, -63.08, -149813.20, 0.00, 0.00, 0.00, 11:18:27.706
192, 32772.21, -40375.83, -4075.48, -83209.33, -38542.05, -2143.51, 79.08, -149674.08, 0.02, -0.47, 0.90, 11:18:27.710
193, 31197.96, -40561.91, -4267.06, -83405.06, -38732.20, -2337.70, -115.49, -149870.78, 0.00, 0.00, 0.00, 11:18:27.714
194, 29773.82, -40704.18, -4411.05, -83544.60, -38873.32, -2476.98, -263.01, -150015.72, 0.00, 0.00, 0.00, 11:18:27.717
195, 30925.11, -40573.91, -4275.82, -83411.43, -38736.49, -2346.53, -131.54, -149881.70, 0.00, 0.00, 0.00, 11:18:27.721
196, 32683.05, -40394.00, -4092.83, -83238.74, -38551.68, -2177.64, 48.55, -149702.13, 0.00, 0.00, 0.00, 11:18:27.726
197, 31564.60, -40560.08, -4263.91, -83412.44, -38723.59, -2354.29, -126.47, -149876.75, 0.00, 0.00, 0.00, 11:18:27.730
198, 29804.24, -40727.65, -4434.63, -83574.73, -38893.20, -2519.87, -299.76, -150047.70, 0.00, 0.00, 0.00, 11:18:27.734
199, 30524.53, -40642.98, -4345.49, -83482.00, -38802.00, -2429.32, -213.95, -149958.77, 0.00, 0.00, 0.00, 11:18:27.739
200, 32510.37, -40425.74, -4122.53, -83266.99, -38579.87, -2217.00, 5.99, -149739.47, 0.00, 0.00, 0.00, 11:18:27.742
201, 31891.00, -40524.54, -4225.91, -83374.80, -38682.71, -2321.65, -100.09, -149847.03, 0.00, 0.00, 0.00, 11:18:27.746
202, 29952.10, -40740.68, -4446.68, -83586.65, -38901.45, -2530.11, -324.12, -150067.28, 0.01, -0.46, 0.90, 11:18:27.749
203, 30153.29, -40681.38, -4383.04, -83517.89, -38833.85, -2459.47, -263.35, -150004.11, 0.00, 0.00, 0.00, 11:18:27.754
204, 32196.26, -40455.83, -4151.14, -83293.15, -38598.62, -2234.53, -32.34, -149778.61, 0.00, 0.00, 0.00, 11:18:27.758
205, 32143.28, -40488.82, -4187.06, -83336.06, -38631.23, -2276.28, -68.49, -149821.23, 0.00, 0.00, 0.00, 11:18:27.761
206, 30098.61, -40697.70, -4399.65, -83544.91, -38840.78, -2484.06, -283.29, -150036.81, 0.00, 0.00, 0.00, 11:18:27.767
207, 29875.18, -40741.84, -4440.75, -83580.91, -38877.44, -2519.06, -327.77, -150079.86, 0.00, 0.00, 0.00, 11:18:27.770
208, 31841.98, -40513.77, -4204.79, -83350.81, -38635.70, -2289.78, -94.32, -149848.59, 0.00, 0.00, 0.00, 11:18:27.772
209, 32346.82, -40458.54, -4149.11, -83307.95, -38579.76, -2243.78, -41.64, -149800.05, 0.00, 0.00, 0.00, 11:18:27.778
210, 30398.73, -40707.71, -4403.76, -83561.01, -38833.99, -2492.89, -299.96, -150057.06, 0.00, 0.00, 0.00, 11:18:27.782
211, 29654.51, -40761.40, -4459.35, -83610.14, -38885.46, -2540.07, -358.16, -150111.98, 0.00, 0.00, 0.00, 11:18:27.786
212, 31382.41, -40520.76, -4215.85, -83371.73, -38637.34, -2301.13, -114.60, -149870.83, 0.02, -0.45, 0.90, 11:18:27.789
213, 32482.52, -40453.80, -4148.30, -83316.66, -38569.81, -2244.29, -51.07, -149811.02, 0.00, 0.00, 0.00, 11:18:27.794
214, 30690.40, -40658.87, -4357.74, -83528.11, -38778.64, -2454.13, -266.57, -150026.13, 0.00, 0.00, 0.00, 11:18:27.798
215, 29505.87, -40737.19, -4434.68, -83601.69, -38853.05, -2525.46, -349.29, -150104.94, 0.00, 0.00, 0.00, 11:18:27.801
216, 30944.38, -40571.48, -4262.12, -83433.98, -38678.71, -2354.33, -179.13, -149935.42, 0.00, 0.00, 0.00, 11:18:27.806
217, 32447.49, -40410.14, -4098.73, -83283.45, -38514.69, -2201.45, -15.78, -149778.36, 0.00, 0.00, 0.00, 11:18:27.810
218, 30997.85, -40596.24, -4291.20, -83477.28, -38706.61, -2394.77, -209.77, -149976.42, 0.00, 0.00, 0.00, 11:18:27.814
219, 29507.90, -40779.10, -4477.81, -83655.05, -38891.03, -2572.10, -400.30, -150165.86, 0.00, 0.00, 0.00, 11:18:27.818
220, 30537.47, -40651.68, -4349.58, -83522.79, -38757.25, -2439.54, -270.72, -150037.55, 0.00, 0.00, 0.00, 11:18:27.822
221, 32362.08, -40465.64, -4163.10, -83343.93, -38569.30, -2257.55, -80.18, -149852.34, 0.00, 0.00, 0.00, 11:18:27.826
222, 31330.86, -40580.57, -4284.87, -83469.44, -38692.03, -2377.15, -202.71, -149975.97, 0.01, -0.46, 0.90, 11:18:27.828
223, 29545.90, -40783.19, -4494.31, -83670.34, -38897.51, -2571.95, -413.60, -150185.77, 0.00, 0.00, 0.00, 11:18:27.834
224, 30146.54, -40705.03, -4412.32, -83584.39, -38812.62, -2483.17, -333.40, -150103.33, 0.00, 0.00, 0.00, 11:18:27.838
225, 32124.17, -40483.52, -4183.78, -83366.93, -38585.97, -2263.02, -108.65, -149879.95, 0.00, 0.00, 0.00, 11:18:27.841
226, 31639.01, -40557.91, -4264.18, -83454.34, -38665.88, -2346.58, -192.76, -149966.00, 0.00, 0.00, 0.00, 11:18:27.846
227, 29663.71, -40766.36, -4480.65, -83661.66, -38876.59, -2552.84, -411.61, -150182.58, 0.00, 0.00, 0.00, 11:18:27.849
228, 29796.53, -40745.89, -4457.74, -83631.69, -38851.18, -2524.74, -389.48, -150159.64, 0.00, 0.00, 0.00, 11:18:27.852
229, 31800.09, -40512.18, -4216.68, -83399.85, -38612.97, -2293.76, -151.25, -149923.72, 0.00, 0.00, 0.00, 11:18:27.857
230, 31865.03, -40559.68, -4267.42, -83460.25, -38667.24, -2349.57, -205.46, -149981.03, 0.00, 0.00, 0.00, 11:18:27.861
231, 29872.19, -40772.91, -4486.26, -83674.04, -38888.01, -2560.64, -426.78, -150203.73, 0.00, 0.00, 0.00, 11:18:27.866
232, 29538.19, -40797.23, -4509.73, -83689.38, -38911.79, -2576.28, -452.49, -150228.75, 0.02, -0.47, 0.89, 11:18:27.870
233, 31464.13, -40619.24, -4327.10, -83506.23, -38728.00, -2396.13, -270.39, -150048.38, 0.00, 0.00, 0.00, 11:18:27.873
234, 32057.94, -40568.97, -4277.83, -83463.11, -38679.29, -2351.87, -221.95, -150005.48, 0.00, 0.00, 0.00, 11:18:27.877
235, 30104.24, -40759.28, -4473.30, -83654.22, -38874.06, -2541.21, -421.17, -150205.02, 0.00, 0.00, 0.00, 11:18:27.881
236, 29306.27, -40821.64, -4536.76, -83708.09, -38935.66, -2596.13, -487.78, -150270.23, 0.00, 0.00, 0.00, 11:18:27.885
237, 31000.97, -40650.33, -4362.52, -83531.53, -38760.16, -2422.35, -313.04, -150098.75, 0.00, 0.00, 0.00, 11:18:27.889
238, 32095.05, -40516.18, -4228.26, -83405.94, -38630.56, -2300.24, -181.70, -149970.72, 0.00, 0.00, 0.00, 11:18:27.894
239, 30391.35, -40703.11, -4421.26, -83598.09, -38825.00, -2493.25, -378.04, -150170.44, 0.00, 0.00, 0.00, 11:18:27.898
240, 29185.30, -40823.49, -4542.79, -83707.99, -38943.71, -2605.81, -501.39, -150293.33, 0.00, 0.00, 0.00, 11:18:27.902
241, 30508.30, -40656.04, -4370.70, -83534.08, -38768.92, -2435.80, -332.08, -150122.42, 0.01, -0.44, 0.91, 11:18:27.905
242, 32024.60, -40488.20, -4200.27, -83373.52, -38599.16, -2278.29, -164.71, -149958.11, 0.00, 0.00, 0.00, 11:18:27.909
243, 30686.42, -40675.84, -4392.88, -83564.95, -38792.75, -2473.67, -361.52, -150156.25, 0.00, 0.00, 0.00, 11:18:27.913
244, 29128.64, -40824.05, -4545.07, -83705.29, -38942.68, -2619.00, -516.86, -150308.66, 0.00, 0.00, 0.00, 11:18:27.916
245, 30077.65, -40713.10, -4432.57, -83587.25, -38827.68, -2502.70, -406.60, -150195.61, 0.00, 0.00, 0.00, 11:18:27.921
246, 31910.49, -40511.98, -4228.26, -83389.53, -38623.72, -2306.01, -205.43, -149995.53, 0.00, 0.00, 0.00, 11:18:27.926
247, 30971.27, -40583.97, -4304.77, -83469.79, -38703.43, -2388.04, -284.25, -150077.55, 0.00, 0.00, 0.00, 11:18:27.930
248, 29167.19, -40775.04, -4500.43, -83657.66, -38900.39, -2577.49, -483.29, -150274.89, 0.00, 0.00, 0.00, 11:18:27.932
249, 29663.51, -40712.67, -4435.46, -83586.73, -38838.46, -2511.46, -422.31, -150213.80, 0.00, 0.00, 0.00, 11:18:27.937
250, 31646.18, -40490.88, -4209.57, -83366.51, -38616.48, -2294.43, -198.46, -149994.50, 0.00, 0.00, 0.00, 11:18:27.941
251, 31243.83, -40542.31, -4267.44, -83429.72, -38675.98, -2353.73, -256.35, -150058.34, 0.01, -0.47, 0.90, 11:18:27.945
252, 29265.61, -40739.32, -4471.85, -83627.35, -38879.83, -2547.67, -462.44, -150266.80, 0.00, 0.00, 0.00, 11:18:27.950
253, 29277.45, -40718.44, -4449.14, -83598.83, -38856.38, -2518.71, -441.98, -150246.67, 0.00, 0.00, 0.00, 11:18:27.954
254, 31316.20, -40530.04, -4255.24, -83410.25, -38665.07, -2330.66, -250.05, -150057.83, 0.00, 0.00, 0.00, 11:18:27.956
255, 31503.69, -40519.96, -4249.00, -83409.89, -38662.86, -2329.81, -246.36, -150058.28, 0.00, 0.00, 0.00, 11:18:27.961
0, 29473.01, -40701.88, -4439.70, -83592.66, -38851.64, -2513.45, -439.35, -150251.95, 0.00, 0.00, 0.00, 11:18:27.965
1, 29014.44, -40731.71, -4473.01, -83614.84, -38881.53, -2537.12, -473.14, -150285.28, 0.00, 0.00, 0.00, 11:18:27.969
2, 30887.12, -40528.63, -4266.77, -83410.47, -38673.41, -2331.58, -267.89, -150080.25, 0.00, 0.00, 0.00, 11:18:27.973
3, 31675.30, -40477.40, -4215.63, -83366.70, -38624.82, -2286.56, -220.10, -150035.05, 0.00, 0.00, 0.00, 11:18:27.978
4, 29789.26, -40674.52, -4418.02, -83565.10, -38828.42, -2485.22, -425.62, -150242.83, 0.00, 0.00, 0.00, 11:18:27.982
5, 28873.45, -40738.73, -4484.79, -83621.05, -38892.50, -2540.77, -492.57, -150311.03, 0.02, -0.45, 0.90, 11:18:27.985
6, 30474.46, -40550.36, -4292.74, -83428.58, -38700.66, -2349.41, -301.23, -150123.55, 0.00, 0.00, 0.00, 11:18:27.989
7, 31683.78, -40396.33, -4137.96, -83284.54, -38549.63, -2204.44, -149.02, -149978.59, 0.00, 0.00, 0.00, 11:18:27.993
8, 30070.79, -40582.86, -4332.26, -83478.09, -38742.14, -2397.43, -344.91, -150180.66, 0.00, 0.00, 0.00, 11:18:27.996
9, 28827.69, -40751.52, -4505.15, -83637.81, -38909.22, -2558.29, -519.05, -150355.06, 0.00, 0.00, 0.00, 11:18:28.002
10, 30104.78, -40629.95, -4376.72, -83505.51, -38780.21, -2427.71, -394.64, -150231.09, 0.00, 0.00, 0.00, 11:18:28.007
11, 31735.88, -40464.05, -4204.05, -83339.75, -38610.80, -2264.28, -226.02, -150065.66, 0.00, 0.00, 0.00, 11:18:28.010
12, 30479.69, -40614.17, -4358.12, -83493.02, -38768.18, -2418.82, -384.05, -150225.48, 0.00, 0.00, 0.00, 11:18:28.013
13, 28864.68, -40775.55, -4522.41, -83646.33, -38932.98, -2573.27, -552.51, -150392.67, 0.00, 0.00, 0.00, 11:18:28.017
14, 29655.13, -40656.12, -4398.60, -83516.06, -38808.71, -2446.73, -432.19, -150270.45, 0.00, 0.00, 0.00, 11:18:28.022
15, 31525.93, -40448.50, -4188.92, -83312.59, -38599.54, -2246.66, -224.19, -150066.03, 0.02, -0.46, 0.88, 11:18:28.026
16, 30767.26, -40559.65, -4304.36, -83430.88, -38718.09, -2368.28, -342.74, -150188.56, 0.00, 0.00, 0.00, 11:18:28.029
17, 28942.29, -40784.04, -4531.82, -83646.23, -38946.33, -2588.58, -572.92, -150419.95, 0.00, 0.00, 0.00, 11:18:28.033
18, 29289.23, -40702.12, -4445.67, -83552.25, -38858.82, -2499.84, -488.72, -150336.06, 0.00, 0.00, 0.00, 11:18:28.038
19, 31271.41, -40460.84, -4198.84, -83311.92, -38610.07, -2264.16, -244.46, -150093.92, 0.00, 0.00, 0.00, 11:18:28.041
20, 31049.23, -40500.18, -4242.18, -83359.87, -38654.95, -2311.89, -291.18, -150144.66, 0.00, 0.00, 0.00, 11:18:28.046
21, 29094.55, -40725.93, -4474.06, -83583.07, -38885.02, -2533.06, -524.84, -150381.02, 0.00, 0.00, 0.00, 11:18:28.049
22, 28999.96, -40734.31, -4482.11, -83581.44, -38888.84, -2532.56, -535.12, -150389.59, 0.00, 0.00, 0.00, 11:18:28.053
23, 30967.04, -40507.98, -4252.04, -83354.55, -38657.48, -2305.05, -305.44, -150161.55, 0.00, 0.00, 0.00, 11:18:28.057
24, 31294.63, -40470.00, -4214.06, -83326.54, -38620.95, -2274.11, -268.85, -150129.44, 0.01, -0.46, 0.89, 11:18:28.061
25, 29350.10, -40712.00, -4461.16, -83569.84, -38868.81, -2513.59, -518.74, -150380.78, 0.00, 0.00, 0.00, 11:18:28.066
26, 28747.76, -40744.41, -4494.06, -83593.47, -38901.04, -2536.27, -554.55, -150416.19, 0.00, 0.00, 0.00, 11:18:28.069
27, 30534.29, -40515.51, -4260.62, -83365.88, -38668.88, -2306.50, -323.90, -150186.86, 0.00, 0.00, 0.00, 11:18:28.073
28, 31422.95, -40424.27, -4172.51, -83290.13, -38582.11, -2225.38, -238.76, -150102.52, 0.00, 0.00, 0.00, 11:18:28.077
29, 29606.00, -40628.92, -4386.02, -83503.59, -38796.28, -2433.52, -455.13, -150318.31, 0.00, 0.00, 0.00, 11:18:28.081
30, 28602.92, -40721.66, -4480.59, -83589.13, -38889.46, -2517.19, -551.22, -150413.41, 0.00, 0.00, 0.00, 11:18:28.085
31, 30134.53, -40553.21, -4308.83, -83417.00, -38715.81, -2343.94, -379.91, -150243.08, 0.00, 0.00, 0.00, 11:18:28.089
32, 31496.94, -40413.11, -4170.39, -83286.62, -38577.07, -2213.92, -243.75, -150108.41, 0.00, 0.00, 0.00, 11:18:28.093
33, 29921.50, -40567.18, -4332.46, -83451.02, -38741.79, -2376.59, -410.67, -150275.06, 0.00, 0.00, 0.00, 11:18:28.097
34, 28520.02, -40694.64, -4463.15, -83577.57, -38872.79, -2499.51, -544.91, -150409.33, 0.01, -0.47, 0.90, 11:18:28.101
35, 29662.11, -40551.36, -4316.50, -83431.37, -38726.14, -2352.50, -399.40, -150264.52, 0.00, 0.00, 0.00, 11:18:28.105
36, 31377.40, -40351.47, -4112.99, -83241.94, -38527.39, -2160.56, -199.15, -150067.95, 0.00, 0.00, 0.00, 11:18:28.109
37, 30257.18, -40494.70, -4261.90, -83397.26, -38679.51, -2311.33, -351.70, -150222.19, 0.00, 0.00, 0.00, 11:18:28.113
38, 28556.43, -40676.51, -4446.50, -83578.18, -38866.13, -2487.99, -541.16, -150408.33, 0.00, 0.00, 0.00, 11:18:28.118
39, 29242.83, -40567.81, -4333.31, -83467.87, -38755.46, -2372.32, -430.70, -150296.13, 0.00, 0.00, 0.00, 11:18:28.122
40, 31207.84, -40373.15, -4136.28, -83285.19, -38561.00, -2182.25, -235.21, -150103.36, 0.00, 0.00, 0.00, 11:18:28.124
41, 30575.67, -40450.82, -4219.23, -83377.68, -38645.79, -2265.28, -319.67, -150189.09, 0.00, 0.00, 0.00, 11:18:28.130
42, 28663.05, -40632.70, -4404.88, -83560.52, -38832.71, -2439.83, -507.30, -150374.97, 0.00, 0.00, 0.00, 11:18:28.133
43, 28919.38, -40614.44, -4383.31, -83538.68, -38811.81, -2409.74, -488.21, -150353.09, 0.00, 0.00, 0.00, 11:18:28.138
44, 30929.40, -40401.31, -4165.78, -83333.98, -38594.58, -2195.66, -271.86, -150138.63, 0.02, -0.47, 0.89, 11:18:28.141
45, 30855.93, -40433.41, -4200.05, -83381.21, -38631.39, -2234.66, -309.71, -150178.66, 0.00, 0.00, 0.00, 11:18:28.145
46, 28862.94, -40635.27, -4407.41, -83586.45, -38838.68, -2433.46, -520.51, -150387.61, 0.00, 0.00, 0.00, 11:18:28.149
47, 28623.26, -40639.88, -4410.36, -83585.40, -38839.62, -2428.61, -526.41, -150389.39, 0.00, 0.00, 0.00, 11:18:28.152
48, 30571.75, -40426.50, -4193.10, -83374.53, -38622.18, -2214.70, -310.06, -150172.63, 0.00, 0.00, 0.00, 11:18:28.156
49, 31064.56, -40380.50, -4147.97, -83339.80, -38581.81, -2178.20, -268.04, -150132.14, 0.00, 0.00, 0.00, 11:18:28.161
50, 29127.61, -40599.64, -4372.18, -83562.06, -38809.60, -2398.10, -497.91, -150359.20, 0.00, 0.00, 0.00, 11:18:28.165
51, 28452.12, -40690.30, -4462.12, -83644.61, -38899.32, -2479.23, -593.64, -150451.17, 0.00, 0.00, 0.00, 11:18:28.169
52, 30169.45, -40480.26, -4246.09, -83432.02, -38683.43, -2265.84, -382.46, -150237.41, 0.00, 0.00, 0.00, 11:18:28.174
53, 31182.61, -40361.57, -4125.06, -83325.02, -38565.68, -2153.23, -264.24, -150121.42, 0.00, 0.00, 0.00, 11:18:28.177
54, 29420.28, -40567.01, -4335.39, -83538.41, -38777.17, -2362.22, -477.21, -150335.53, 0.02, -0.47, 0.90, 11:18:28.180
55, 28298.47, -40684.22, -4454.77, -83648.80, -38893.51, -2473.76, -598.49, -150454.33, 0.00, 0.00, 0.00, 11:18:28.184
56, 29738.73, -40524.58, -4290.17, -83485.87, -38728.53, -2312.27, -437.71, -150292.72, 0.00, 0.00, 0.00, 11:18:28.189
57, 31219.62, -40377.15, -4139.12, -83347.28, -38578.04, -2173.84, -290.37, -150147.77, 0.00, 0.00, 0.00, 11:18:28.193
58, 29767.49, -40541.97, -4308.63, -83521.02, -38747.80, -2343.58, -464.18, -150320.59, 0.00, 0.00, 0.00, 11:18:28.197
59, 28275.47, -40696.07, -4465.39, -83670.84, -38903.07, -2488.51, -622.97, -150475.94, 0.00, 0.00, 0.00, 11:18:28.201
60, 29316.70, -40566.94, -4333.04, -83537.32, -38770.53, -2352.54, -491.89, -150343.23, 0.00, 0.00, 0.00, 11:18:28.205
61, 31103.55, -40371.27, -4130.29, -83348.98, -38573.50, -2160.21, -292.96, -150146.59, 0.00, 0.00, 0.00, 11:18:28.208
62, 30090.86, -40497.40, -4256.26, -83485.51, -38709.27, -2291.19, -426.00, -150281.19, 0.00, 0.00, 0.00, 11:18:28.212
63, 28345.95, -40689.36, -4450.41, -83677.09, -38906.05, -2476.48, -624.87, -150477.17, 0.00, 0.00, 0.00, 11:18:28.216
64, 28935.90, -40597.34, -4354.03, -83580.59, -38807.81, -2373.22, -530.76, -150379.38, 0.02, -0.46, 0.90, 11:18:28.221
65, 30883.67, -40349.14, -4099.06, -83338.07, -38554.50, -2128.11, -277.47, -150127.00, 0.00, 0.00, 0.00, 11:18:28.226
66, 30398.80, -40439.40, -4192.54, -83440.89, -38651.06, -2225.83, -373.10, -150224.66, 0.00, 0.00, 0.00, 11:18:28.228
67, 28485.31, -40640.86, -4398.82, -83644.63, -38858.77, -2421.83, -582.98, -150430.56, 0.00, 0.00, 0.00, 11:18:28.232
68, 28612.40, -40622.91, -4378.64, -83622.70, -38840.74, -2395.15, -567.94, -150408.39, 0.00, 0.00, 0.00, 11:18:28.236
69, 30607.16, -40409.96, -4158.05, -83413.55, -38626.50, -2182.09, -351.93, -150191.16, 0.00, 0.00, 0.00, 11:18:28.240
70, 30662.70, -40407.17, -4153.78, -83422.90, -38629.80, -2186.05, -351.73, -150191.95, 0.00, 0.00, 0.00, 11:18:28.246
71, 28685.45, -40617.03, -4366.95, -83636.09, -38849.32, -2393.07, -568.94, -150407.44, 0.00, 0.00, 0.00, 11:18:28.250
72, 28389.38, -40686.01, -4435.01, -83698.27, -38922.37, -2451.43, -641.29, -150474.91, 0.00, 0.00, 0.00, 11:18:28.254
73, 30268.37, -40467.45, -4208.03, -83478.15, -38699.81, -2227.95, -417.64, -150249.88, 0.02, -0.46, 0.89, 11:18:28.256
74, 30851.71, -40377.02, -4114.38, -83398.29, -38611.70, -2142.06, -326.13, -150161.27, 0.00, 0.00, 0.00, 11:18:28.260
75, 28942.09, -40577.15, -4319.27, -83604.59, -38821.20, -2341.57, -534.18, -150369.66, 0.00, 0.00, 0.00, 11:18:28.264
76, 28167.62, -40658.13, -4400.81, -83681.40, -38906.34, -2412.04, -618.54, -150449.92, 0.00, 0.00, 0.00, 11:18:28.269
77, 29841.68, -40469.84, -4205.77, -83491.79, -38714.20, -2218.19, -424.39, -150254.41, 0.00, 0.00, 0.00, 11:18:28.274
78, 30985.48, -40364.77, -4098.66, -83396.88, -38612.50, -2119.82, -320.12, -150150.05, 0.00, 0.00, 0.00, 11:18:28.278
79, 29295.16, -40565.15, -4304.61, -83602.92, -38823.23, -2320.98, -528.55, -150357.59, 0.00, 0.00, 0.00, 11:18:28.281
80, 28087.00, -40678.86, -4417.35, -83708.45, -38937.00, -2422.84, -642.46, -150468.86, 0.00, 0.00, 0.00, 11:18:28.284
81, 29422.00, -40533.23, -4264.73, -83556.95, -38782.73, -2267.65, -490.49, -150315.00, 0.00, 0.00, 0.00, 11:18:28.288
82, 30965.57, -40358.40, -4084.87, -83389.91, -38606.71, -2098.27, -315.92, -150138.00, 0.00, 0.00, 0.00, 11:18:28.293
83, 29592.37, -40488.62, -4218.87, -83528.38, -38746.10, -2234.15, -454.30, -150275.53, 0.02, -0.45, 0.90, 11:18:28.297
84, 28028.88, -40630.26, -4362.17, -83667.83, -38893.69, -2369.31, -602.00, -150420.95, 0.00, 0.00, 0.00, 11:18:28.300
85, 28991.69, -40529.68, -4257.18, -83565.10, -38791.72, -2264.39, -500.81, -150316.97, 0.00, 0.00, 0.00, 11:18:28.305
86, 30854.44, -40345.43, -4069.56, -83388.90, -38609.11, -2083.79, -315.74, -150131.75, 0.00, 0.00, 0.00, 11:18:28.309
87, 29937.46, -40437.07, -4162.65, -83491.12, -38710.00, -2179.90, -412.55, -150228.42, 0.00, 0.00, 0.00, 11:18:28.313
88, 28139.91, -40635.16, -4362.95, -83686.91, -38913.29, -2370.60, -616.06, -150427.28, 0.00, 0.00, 0.00, 11:18:28.316
89, 28624.83, -40570.20, -4294.60, -83615.05, -38845.30, -2295.55, -552.80, -150355.47, 0.00, 0.00, 0.00, 11:18:28.320
90, 30631.12, -40354.06, -4072.11, -83404.13, -38627.64, -2082.09, -335.54, -150135.97, 0.00, 0.00, 0.00, 11:18:28.325
91, 30294.75, -40441.28, -4161.20, -83502.23, -38723.43, -2177.33, -428.19, -150231.30, 0.00, 0.00, 0.00, 11:18:28.328
92, 28333.38, -40638.24, -4362.50, -83699.39, -38926.28, -2373.04, -632.15, -150434.31, 0.00, 0.00, 0.00, 11:18:28.333
93, 28324.42, -40610.57, -4332.51, -83664.79, -38896.48, -2339.62, -605.55, -150404.22, 0.02, -0.47, 0.90, 11:18:28.336
94, 30335.52, -40395.64, -4110.42, -83449.50, -38677.95, -2127.71, -386.64, -150185.41, 0.00, 0.00, 0.00, 11:18:28.340
95, 30548.13, -40389.22, -4104.54, -83452.38, -38677.50, -2131.71, -384.90, -150185.05, 0.00, 0.00, 0.00, 11:18:28.344
96, 28563.36, -40617.77, -4336.62, -83680.15, -38913.00, -2358.51, -619.84, -150420.95, 0.00, 0.00, 0.00, 11:18:28.349
97, 28134.95, -40693.27, -4411.05, -83744.70, -38988.28, -2422.33, -695.16, -150494.84, 0.00, 0.00, 0.00, 11:18:28.353
98, 30019.02, -40506.75, -4217.86, -83553.77, -38795.77, -2230.17, -504.17, -150303.70, 0.00, 0.00, 0.00, 11:18:28.356
99, 30780.23, -40417.85, -4127.16, -83471.55, -38706.83, -2145.14, -414.83, -150218.63, 0.00, 0.00, 0.00, 11:18:28.361
100, 28904.09, -40634.82, -4348.84, -83688.73, -38929.32, -2360.14, -636.64, -150443.31, 0.00, 0.00, 0.00, 11:18:28.365
101, 27977.30, -40722.35, -4436.46, -83765.46, -39015.44, -2437.37, -725.45, -150529.34, 0.00, 0.00, 0.00, 11:18:28.369
102, 29603.19, -40560.46, -4266.88, -83597.31, -38846.23, -2270.09, -558.59, -150359.86, 0.00, 0.00, 0.00, 11:18:28.373
103, 30870.91, -40437.46, -4139.50, -83479.59, -38723.52, -2154.91, -437.07, -150238.36, 0.01, -0.46, 0.89, 11:18:28.376
104, 29234.94, -40616.98, -4323.10, -83662.15, -38908.24, -2337.95, -626.54, -150427.39, 0.00, 0.00, 0.00, 11:18:28.382
105, 27933.94, -40776.71, -4485.86, -83812.36, -39066.98, -2490.83, -790.83, -150589.98, 0.00, 0.00, 0.00, 11:18:28.385
106, 29180.85, -40623.45, -4329.20, -83651.27, -38906.34, -2330.53, -636.40, -150431.89, 0.00, 0.00, 0.00, 11:18:28.388
107, 30860.58, -40469.64, -4171.73, -83500.15, -38747.46, -2179.70, -483.00, -150276.89, 0.00, 0.00, 0.00, 11:18:28.392
108, 29601.62, -40623.54, -4328.17, -83654.33, -38903.95, -2334.06, -642.77, -150436.98, 0.00, 0.00, 0.00, 11:18:28.397
109, 27925.17, -40776.44, -4481.39, -83797.29, -39054.98, -2477.56, -798.45, -150589.44, 0.00, 0.00, 0.00, 11:18:28.401
110, 28737.99, -40655.79, -4356.04, -83667.96, -38926.99, -2348.10, -674.40, -150462.84, 0.00, 0.00, 0.00, 11:18:28.405
111, 30650.92, -40432.23, -4126.15, -83447.51, -38699.43, -2126.68, -447.88, -150237.63, 0.00, 0.00, 0.00, 11:18:28.409
112, 29879.28, -40520.49, -4214.38, -83544.38, -38790.38, -2217.63, -541.54, -150333.53, 0.00, 0.00, 0.00, 11:18:28.412
113, 28027.39, -40740.10, -4436.28, -83760.81, -39012.11, -2428.47, -769.28, -150558.48, 0.02, -0.45, 0.90, 11:18:28.417
114, 28367.25, -40676.15, -4367.89, -83688.02, -38941.41, -2352.05, -704.28, -150490.05, 0.00, 0.00, 0.00, 11:18:28.421
115, 30391.98, -40450.82, -4134.33, -83464.85, -38708.46, -2125.70, -473.79, -150261.30, 0.00, 0.00, 0.00, 11:18:28.424
116, 30191.15, -40492.02, -4177.21, -83517.76, -38754.88, -2173.75, -519.72, -150309.78, 0.00, 0.00, 0.00, 11:18:28.429
117, 28193.62, -40705.21, -4393.77, -83733.30, -38973.82, -2383.57, -741.30, -150529.03, 0.00, 0.00, 0.00, 11:18:28.433
118, 28058.90, -40699.48, -4384.74, -83720.58, -38964.27, -2367.23, -736.29, -150520.16, 0.00, 0.00, 0.00, 11:18:28.436
119, 30030.75, -40460.46, -4138.85, -83482.82, -38718.61, -2127.26, -491.56, -150275.89, 0.00, 0.00, 0.00, 11:18:28.441
120, 30387.40, -40421.83, -4100.29, -83456.07, -38680.81, -2096.62, -455.19, -150241.84, 0.00, 0.00, 0.00, 11:18:28.445
121, 28420.78, -40642.85, -4326.92, -83682.45, -38905.63, -2317.59, -685.30, -150469.02, 0.00, 0.00, 0.00, 11:18:28.450
122, 27839.16, -40710.44, -4394.15, -83743.36, -38968.23, -2375.61, -755.13, -150532.64, 0.01, -0.47, 0.90, 11:18:28.452
123, 29638.55, -40505.67, -4181.32, -83535.64, -38752.43, -2166.80, -545.65, -150319.36, 0.00, 0.00, 0.00, 11:18:28.456
124, 30562.57, -40418.05, -4091.67, -83459.00, -38664.70, -2087.76, -459.78, -150233.42, 0.00, 0.00, 0.00, 11:18:28.461
125, 28754.31, -40640.75, -4321.17, -83688.68, -38894.70, -2313.83, -693.95, -150464.56, 0.00, 0.00, 0.00, 11:18:28.465
126, 27714.80, -40739.27, -4419.21, -83781.09, -38991.75, -2404.51, -796.71, -150564.41, 0.00, 0.00, 0.00, 11:18:28.469
127, 29221.31, -40549.57, -4221.10, -83587.41, -38794.16, -2211.86, -600.95, -150370.28, 0.00, 0.00, 0.00, 11:18:28.473
128, 30592.74, -40389.20, -4057.20, -83438.99, -38634.48, -2064.72, -439.90, -150212.91, 0.00, 0.00, 0.00, 11:18:28.477
129, 29054.34, -40561.53, -4235.83, -83624.89, -38815.95, -2249.19, -623.48, -150396.09, 0.00, 0.00, 0.00, 11:18:28.479
130, 27641.35, -40703.31, -4380.81, -83768.63, -38961.21, -2391.46, -772.61, -150542.13, 0.00, 0.00, 0.00, 11:18:28.484
131, 28798.75, -40574.41, -4247.23, -83638.46, -38829.54, -2261.93, -642.26, -150410.89, 0.00, 0.00, 0.00, 11:18:28.488
132, 30560.35, -40403.08, -4073.02, -83473.97, -38657.96, -2099.03, -471.55, -150240.02, 0.02, -0.46, 0.89, 11:18:28.493
133, 29427.88, -40553.33, -4227.81, -83630.32, -38814.50, -2259.18, -629.13, -150398.33, 0.00, 0.00, 0.00, 11:18:28.496
134, 27698.15, -40724.65, -4401.64, -83795.93, -38987.72, -2432.03, -805.60, -150573.45, 0.00, 0.00, 0.00, 11:18:28.500
135, 28376.52, -40607.60, -4280.07, -83672.91, -38865.23, -2315.15, -686.89, -150453.97, 0.00, 0.00, 0.00, 11:18:28.503
136, 30349.09, -40398.39, -4065.89, -83468.38, -38652.25, -2114.63, -475.38, -150242.88, 0.00, 0.00, 0.00, 11:18:28.508
137, 29735.82, -40499.15, -4171.26, -83580.50, -38759.36, -2225.79, -582.91, -150352.38, 0.00, 0.00, 0.00, 11:18:28.513
138, 27810.20, -40707.35, -4385.43, -83788.82, -38972.46, -2432.47, -799.61, -150567.81, 0.00, 0.00, 0.00, 11:18:28.516
139, 28051.37, -40688.98, -4366.35, -83765.46, -38952.63, -2410.28, -783.27, -150549.20, 0.00, 0.00, 0.00, 11:18:28.521
140, 30070.85, -40453.01, -4126.04, -83533.59, -38712.93, -2181.73, -544.09, -150311.66, 0.00, 0.00, 0.00, 11:18:28.525
141, 30009.47, -40473.55, -4148.71, -83566.51, -38737.83, -2214.19, -570.33, -150339.77, 0.00, 0.00, 0.00, 11:18:28.527
142, 28000.90, -40685.85, -4366.99, -83780.30, -38956.79, -2428.99, -792.12, -150560.55, 0.02, -0.46, 0.90, 11:18:28.532
143, 27724.90, -40670.72, -4348.04, -83756.05, -38936.34, -2408.71, -776.54, -150541.81, 0.00, 0.00, 0.00, 11:18:28.536
144, 29688.73, -40446.15, -4114.96, -83533.59, -38701.87, -2186.94, -546.01, -150310.58, 0.00, 0.00, 0.00, 11:18:28.541
145, 30220.88, -40420.13, -4088.33, -83520.66, -38677.99, -2172.75, -523.19, -150290.13, 0.00, 0.00, 0.00, 11:18:28.545
146, 28293.42, -40665.33, -4341.29, -83771.14, -38930.86, -2420.98, -779.76, -150546.03, 0.00, 0.00, 0.00, 11:18:28.548
147, 27573.45, -40730.60, -4406.65, -83826.68, -38995.23, -2480.24, -848.81, -150613.41, 0.00, 0.00, 0.00, 11:18:28.552
148, 29304.68, -40513.18, -4182.61, -83604.33, -38772.47, -2264.37, -627.12, -150393.23, 0.00, 0.00, 0.00, 11:18:28.556
149, 30326.00, -40376.55, -4043.05, -83478.22, -38636.69, -2138.82, -489.41, -150259.59, 0.00, 0.00, 0.00, 11:18:28.560
150, 28557.57, -40576.82, -4248.87, -83687.99, -38846.08, -2341.66, -695.94, -150467.22, 0.00, 0.00, 0.00, 11:18:28.563
151, 27439.45, -40702.23, -4376.56, -83810.14, -38975.05, -2458.85, -823.44, -150592.53, 0.00, 0.00, 0.00, 11:18:28.568
152, 28910.75, -40554.38, -4223.70, -83659.47, -38824.58, -2308.02, -672.25, -150441.63, 0.02, -0.45, 0.90, 11:18:28.573
153, 30403.04, -40400.08, -4068.67, -83515.28, -38672.85, -2162.84, -519.50, -150292.23, 0.00, 0.00, 0.00, 11:18:28.577
154, 28921.21, -40532.27, -4206.46, -83657.84, -38814.68, -2303.59, -660.78, -150436.05, 0.00, 0.00, 0.00, 11:18:28.579
155, 27421.32, -40677.76, -4354.34, -83800.17, -38963.38, -2444.41, -813.76, -150584.23, 0.00, 0.00, 0.00, 11:18:28.584
156, 28463.78, -40546.49, -4217.66, -83663.47, -38828.60, -2310.07, -682.09, -150448.27, 0.00, 0.00, 0.00, 11:18:28.588
157, 30309.28, -40372.41, -4038.20, -83496.77, -38655.26, -2147.02, -507.59, -150274.91, 0.00, 0.00, 0.00, 11:18:28.592
158, 29302.53, -40515.15, -4185.25, -83650.38, -38808.93, -2302.43, -660.96, -150429.72, 0.00, 0.00, 0.00, 11:18:28.595
159, 27512.94, -40713.52, -4387.63, -83845.88, -39015.33, -2498.57, -868.90, -150635.83, 0.00, 0.00, 0.00, 11:18:28.600
160, 28107.94, -40646.22, -4315.81, -83770.47, -38945.45, -2426.59, -802.36, -150567.41, 0.00, 0.00, 0.00, 11:18:28.605
161, 30090.32, -40412.49, -4074.54, -83538.63, -38705.42, -2200.22, -566.77, -150331.61, 0.02, -0.46, 0.90, 11:18:28.608
162, 29620.06, -40482.38, -4147.46, -83618.19, -38779.47, -2282.31, -643.37, -150408.44, 0.00, 0.00, 0.00, 11:18:28.611
163, 27671.55, -40698.86, -4368.42, -83831.78, -39001.11, -2498.95, -868.34, -150630.77, 0.00, 0.00, 0.00, 11:18:28.616
164, 27794.71, -40681.40, -4348.51, -83804.78, -38981.91, -2476.13, -854.08, -150611.28, 0.00, 0.00, 0.00, 11:18:28.620
165, 29802.34, -40445.43, -4103.94, -83568.41, -38744.02, -2242.71, -616.77, -150370.70, 0.00, 0.00, 0.00, 11:18:28.624
166, 29863.67, -40434.55, -4092.85, -83567.58, -38739.80, -2244.09, -612.04, -150365.08, 0.00, 0.00, 0.00, 11:18:28.629
167, 27898.08, -40680.78, -4342.97, -83813.36, -38991.34, -2491.30, -867.09, -150618.61, 0.00, 0.00, 0.00, 11:18:28.632
168, 27541.21, -40715.67, -4375.04, -83836.96, -39020.49, -2518.73, -902.30, -150651.28, 0.00, 0.00, 0.00, 11:18:28.636
169, 29452.98, -40484.39, -4135.39, -83603.61, -38782.04, -2289.82, -666.62, -150416.28, 0.00, 0.00, 0.00, 11:18:28.640
170, 30121.90, -40432.20, -4082.34, -83562.02, -38733.09, -2252.12, -619.01, -150371.25, 0.00, 0.00, 0.00, 11:18:28.643
171, 28185.28, -40651.65, -4306.80, -83784.38, -38960.03, -2477.94, -848.18, -150600.30, 0.01, -0.46, 0.90, 11:18:28.648
172, 27327.58, -40713.39, -4369.77, -83836.79, -39023.89, -2536.45, -913.09, -150662.59, 0.00, 0.00, 0.00, 11:18:28.652
173, 29036.35, -40531.45, -4185.34, -83649.26, -38838.43, -2355.92, -729.20, -150477.91, 0.00, 0.00, 0.00, 11:18:28.657
174, 30240.63, -40448.30, -4102.39, -83570.30, -38758.91, -2283.23, -647.64, -150398.48, 0.00, 0.00, 0.00, 11:18:28.661
175, 28539.62, -40636.12, -4293.64, -83759.36, -38955.60, -2477.49, -844.61, -150595.31, 0.00, 0.00, 0.00, 11:18:28.664
176, 27299.79, -40761.76, -4418.90, -83876.70, -39081.40, -2601.01, -976.50, -150725.00, 0.00, 0.00, 0.00, 11:18:28.668
177, 28636.47, -40599.21, -4251.61, -83707.57, -38912.66, -2440.63, -814.74, -150561.09, 0.00, 0.00, 0.00, 11:18:28.672
178, 30241.87, -40438.15, -4086.82, -83552.67, -38751.11, -2292.75, -654.91, -150401.91, 0.00, 0.00, 0.00, 11:18:28.675
179, 28870.12, -40599.08, -4252.93, -83718.99, -38919.66, -2463.99, -824.02, -150571.50, 0.00, 0.00, 0.00, 11:18:28.680
180, 27289.31, -40764.73, -4422.54, -83878.47, -39089.64, -2629.26, -996.08, -150739.75, 0.00, 0.00, 0.00, 11:18:28.684
181, 28227.03, -40654.85, -4309.84, -83760.61, -38975.20, -2518.97, -884.06, -150626.41, 0.02, -0.46, 0.90, 11:18:28.689
182, 30079.30, -40422.48, -4072.62, -83532.51, -38738.54, -2299.82, -647.80, -150392.75, 0.00, 0.00, 0.00, 11:18:28.692
183, 29184.98, -40521.05, -4174.37, -83641.55, -38841.39, -2412.02, -750.50, -150497.17, 0.00, 0.00, 0.00, 11:18:28.696
184, 27354.13, -40716.61, -4373.10, -83836.80, -39039.04, -2607.91, -950.57, -150696.66, 0.00, 0.00, 0.00, 11:18:28.700
185, 27841.51, -40662.45, -4316.81, -83775.09, -38979.30, -2550.02, -894.11, -150639.27, 0.00, 0.00, 0.00, 11:18:28.704
186, 29847.47, -40439.13, -4089.79, -83552.09, -38750.30, -2336.18, -666.53, -150412.73, 0.00, 0.00, 0.00, 11:18:28.708
187, 29481.06, -40471.97, -4127.03, -83592.70, -38787.23, -2383.48, -703.28, -150452.83, 0.00, 0.00, 0.00, 11:18:28.712
188, 27514.37, -40692.96, -4354.48, -83811.22, -39011.14, -2604.96, -931.33, -150680.59, 0.00, 0.00, 0.00, 11:18:28.716
189, 27522.69, -40683.17, -4346.12, -83793.98, -38996.33, -2591.33, -923.75, -150668.83, 0.00, 0.00, 0.00, 11:18:28.719
190, 29531.68, -40446.75, -4106.33, -83558.59, -38752.56, -2359.32, -683.56, -150427.28, 0.00, 0.00, 0.00, 11:18:28.724
191, 29746.15, -40426.77, -4088.00, -83547.95, -38733.71, -2352.43, -666.51, -150409.48, 0.02, -0.46, 0.90, 11:18:28.728
192, 27794.06, -40672.37, -4341.09, -83794.70, -38983.43, -2601.83, -921.70, -150661.34, 0.00, 0.00, 0.00, 11:18:28.732
193, 27369.96, -40766.05, -4439.08, -83879.63, -39074.51, -2690.57, -1021.39, -150755.41, 0.00, 0.00, 0.00, 11:18:28.736
194, 29186.97, -40543.11, -4213.62, -83652.20, -38843.78, -2469.06, -796.03, -150528.25, 0.00, 0.00, 0.00, 11:18:28.740
195, 29940.61, -40441.37, -4113.44, -83555.91, -38744.87, -2380.39, -696.84, -150430.56, 0.00, 0.00, 0.00, 11:18:28.743
196, 28059.73, -40637.62, -4317.60, -83753.46, -38949.32, -2585.00, -902.38, -150635.64, 0.00, 0.00, 0.00, 11:18:28.747
197, 27146.88, -40743.70, -4426.63, -83852.50, -39053.52, -2686.25, -1011.06, -150741.09, 0.00, 0.00, 0.00, 11:18:28.752
198, 28765.11, -40589.09, -4270.32, -83694.80, -38891.95, -2530.33, -853.12, -150583.16, 0.00, 0.00, 0.00, 11:18:28.756
199, 30022.10, -40447.09, -4131.81, -83561.63, -38752.13, -2398.95, -712.71, -150444.02, 0.00, 0.00, 0.00, 11:18:28.760
200, 28377.06, -40610.73, -4305.10, -83733.21, -38925.63, -2569.60, -884.53, -150615.19, 0.00, 0.00, 0.00, 11:18:28.765
201, 27071.47, -40755.43, -4455.19, -83871.03, -39072.77, -2709.50, -1033.08, -150760.19, 0.01, -0.47, 0.90, 11:18:28.768
202, 28329.96, -40629.10, -4324.86, -83734.39, -38938.79, -2576.28, -901.18, -150626.52, 0.00, 0.00, 0.00, 11:18:28.772
203, 29983.63, -40451.71, -4145.51, -83560.79, -38758.59, -2402.95, -718.99, -150446.08, 0.00, 0.00, 0.00, 11:18:28.775
204, 28728.32, -40588.98, -4289.77, -83705.47, -38902.83, -2544.54, -862.08, -150590.94, 0.00, 0.00, 0.00, 11:18:28.780
205, 27077.08, -40756.41, -4462.03, -83868.55, -39073.29, -2705.46, -1035.04, -150759.58, 0.00, 0.00, 0.00, 11:18:28.783
206, 27904.50, -40667.48, -4373.43, -83771.63, -38979.72, -2611.56, -944.72, -150665.81, 0.00, 0.00, 0.00, 11:18:28.788
207, 29836.63, -40472.30, -4177.47, -83578.98, -38782.84, -2421.41, -748.92, -150470.13, 0.00, 0.00, 0.00, 11:18:28.792
208, 29083.42, -40570.80, -4284.18, -83686.45, -38890.29, -2527.62, -856.83, -150576.83, 0.00, 0.00, 0.00, 11:18:28.796
209, 27195.57, -40764.37, -4487.13, -83877.40, -39092.69, -2717.19, -1057.62, -150776.33, 0.00, 0.00, 0.00, 11:18:28.800
210, 27538.04, -40701.18, -4425.33, -83805.98, -39029.41, -2646.33, -993.74, -150711.34, 0.01, -0.47, 0.90, 11:18:28.803
211, 29544.49, -40449.30, -4174.03, -83558.02, -38775.00, -2398.48, -740.74, -150458.77, 0.00, 0.00, 0.00, 11:18:28.808
212, 29323.86, -40465.55, -4197.12, -83586.11, -38797.24, -2426.13, -763.69, -150484.19, 0.00, 0.00, 0.00, 11:18:28.812
213, 27368.37, -40708.71, -4450.88, -83831.45, -39047.63, -2669.78, -1017.76, -150737.19, 0.00, 0.00, 0.00, 11:18:28.817
214, 27238.93, -40701.32, -4446.59, -83817.25, -39037.36, -2654.67, -1010.46, -150728.11, 0.00, 0.00, 0.00, 11:18:28.821
215, 29227.70, -40474.11, -4216.41, -83592.52, -38804.84, -2428.05, -778.35, -150496.17, 0.00, 0.00, 0.00, 11:18:28.823
216, 29610.03, -40458.94, -4207.38, -83590.89, -38796.70, -2425.07, -769.48, -150488.64, 0.00, 0.00, 0.00, 11:18:28.827
217, 27651.12, -40696.65, -4456.85, -83830.93, -39046.75, -2664.22, -1018.17, -150738.08, 0.00, 0.00, 0.00, 11:18:28.831
218, 27035.57, -40736.59, -4502.02, -83861.71, -39091.52, -2696.89, -1060.01, -150778.89, 0.00, 0.00, 0.00, 11:18:28.835
219, 28846.69, -40535.63, -4302.69, -83658.87, -38888.55, -2493.87, -856.23, -150573.75, 0.00, 0.00, 0.00, 11:18:28.840
220, 29749.81, -40432.65, -4205.64, -83565.62, -38789.46, -2398.66, -755.33, -150472.63, 0.02, -0.47, 0.90, 11:18:28.844
221, 27913.26, -40611.38, -4396.97, -83749.81, -38977.93, -2580.62, -943.47, -150658.95, 0.00, 0.00, 0.00, 11:18:28.848
222, 26883.80, -40712.89, -4505.42, -83844.32, -39082.31, -2672.87, -1049.50, -150761.69, 0.00, 0.00, 0.00, 11:18:28.852
223, 28421.18, -40558.16, -4350.23, -83685.58, -38926.61, -2513.72, -893.02, -150603.97, 0.00, 0.00, 0.00, 11:18:28.855
224, 29812.15, -40408.33, -4200.41, -83542.70, -38778.40, -2368.57, -740.87, -150452.97, 0.00, 0.00, 0.00, 11:18:28.859
225, 28258.86, -40573.98, -4375.17, -83714.48, -38953.19, -2537.28, -912.38, -150624.72, 0.00, 0.00, 0.00, 11:18:28.864
226, 26843.84, -40719.25, -4528.08, -83854.78, -39101.63, -2673.65, -1063.47, -150771.47, 0.00, 0.00, 0.00, 11:18:28.868
227, 28004.75, -40597.58, -4408.37, -83728.02, -38977.24, -2545.95, -942.22, -150646.03, 0.00, 0.00, 0.00, 11:18:28.872
228, 29744.31, -40403.19, -4215.81, -83540.11, -38785.98, -2359.79, -746.68, -150452.42, 0.00, 0.00, 0.00, 11:18:28.877
229, 28644.18, -40562.80, -4387.47, -83708.82, -38955.76, -2528.30, -914.23, -150621.56, 0.00, 0.00, 0.00, 11:18:28.879
230, 26907.43, -40726.73, -4562.44, -83868.57, -39122.19, -2687.44, -1083.50, -150788.89, 0.02, -0.46, 0.89, 11:18:28.883
231, 27612.88, -40632.54, -4471.40, -83767.97, -39021.59, -2586.92, -987.39, -150689.94, 0.00, 0.00, 0.00, 11:18:28.888
232, 29586.53, -40415.84, -4256.80, -83556.63, -38801.26, -2374.52, -767.98, -150472.03, 0.00, 0.00, 0.00, 11:18:28.891
233, 28964.69, -40504.33, -4356.49, -83655.23, -38896.01, -2471.37, -862.04, -150568.59, 0.00, 0.00, 0.00, 11:18:28.896
234, 27066.82, -40742.31, -4605.71, -83887.23, -39137.99, -2704.76, -1105.87, -150810.02, 0.00, 0.00, 0.00, 11:18:28.900
235, 27284.42, -40690.37, -4557.32, -83822.55, -39081.62, -2645.53, -1050.96, -150753.70, 0.00, 0.00, 0.00, 11:18:28.904
236, 29305.24, -40443.94, -4311.96, -83575.67, -38830.39, -2402.30, -798.31, -150501.70, 0.00, 0.00, 0.00, 11:18:28.908
237, 29247.35, -40461.35, -4337.15, -83600.70, -38853.70, -2433.55, -819.53, -150522.66, 0.00, 0.00, 0.00, 11:18:28.911
238, 27226.86, -40672.13, -4559.44, -83812.80, -39072.21, -2649.15, -1037.55, -150737.75, 0.00, 0.00, 0.00, 11:18:28.915
239, 26989.57, -40696.54, -4588.23, -83830.13, -39096.60, -2671.75, -1061.80, -150758.63, 0.00, 0.00, 0.00, 11:18:28.919
240, 28949.35, -40466.07, -4358.10, -83599.88, -38864.90, -2449.10, -827.08, -150523.70, 0.02, -0.46, 0.90, 11:18:28.924
241, 29473.08, -40431.64, -4330.56, -83573.46, -38839.55, -2428.79, -796.48, -150494.14, 0.00, 0.00, 0.00, 11:18:28.928
242, 27510.06, -40653.73, -4565.01, -83796.17, -39073.24, -2656.15, -1026.15, -150723.27, 0.00, 0.00, 0.00, 11:18:28.932
243, 26800.90, -40723.78, -4640.33, -83856.84, -39146.84, -2722.04, -1094.65, -150790.14, 0.00, 0.00, 0.00, 11:18:28.936
244, 28572.41, -40539.83, -4457.47, -83668.79, -38962.02, -2540.16, -905.07, -150599.03, 0.00, 0.00, 0.00, 11:18:28.939
245, 29642.81, -40460.61, -4382.51, -83597.82, -38889.44, -2472.75, -825.00, -150520.38, 0.00, 0.00, 0.00, 11:18:28.943
246, 27870.37, -40674.41, -4607.07, -83816.83, -39116.04, -2691.13, -1046.11, -150741.17, 0.00, 0.00, 0.00, 11:18:28.947
247, 26706.78, -40764.89, -4703.68, -83899.51, -39208.45, -2776.06, -1138.17, -150830.95, 0.00, 0.00, 0.00, 11:18:28.952
248, 28158.12, -40601.27, -4539.73, -83729.90, -39039.87, -2612.36, -969.69, -150660.03, 0.00, 0.00, 0.00, 11:18:28.957
249, 29649.74, -40449.66, -4390.69, -83585.51, -38888.19, -2472.91, -816.55, -150507.08, 0.00, 0.00, 0.00, 11:18:28.960
250, 28195.61, -40618.17, -4571.58, -83760.97, -39067.29, -2652.64, -991.95, -150683.83, 0.02, -0.46, 0.90, 11:18:28.964
251, 26691.63, -40782.63, -4746.12, -83917.74, -39239.04, -2817.46, -1162.25, -150851.83, 0.00, 0.00, 0.00, 11:18:28.968
252, 27701.99, -40627.67, -4593.19, -83754.48, -39083.19, -2662.85, -1005.38, -150693.33, 0.00, 0.00, 0.00, 11:18:28.971
253, 29546.35, -40430.53, -4397.97, -83562.15, -38885.71, -2475.54, -805.11, -150496.89, 0.00, 0.00, 0.00, 11:18:28.975
254, 28579.23, -40583.14, -4560.07, -83719.35, -39044.52, -2637.46, -963.67, -150658.08, 0.00, 0.00, 0.00, 11:18:28.979
255, 26807.88, -40806.89, -4792.35, -83935.16, -39270.96, -2857.31, -1192.98, -150885.83, 0.00, 0.00, 0.00, 11:18:28.984
0, 27370.07, -40706.53, -4693.82, -83827.40, -39166.78, -2752.75, -1091.86, -150783.36, 0.00, 0.00, 0.00, 11:18:28.987
1, 29364.45, -40481.38, -4470.13, -83606.30, -38941.07, -2537.97, -865.46, -150558.31, 0.00, 0.00, 0.00, 11:18:28.991
2, 28879.21, -40539.27, -4537.43, -83673.77, -39008.24, -2609.25, -930.30, -150625.47, 0.00, 0.00, 0.00, 11:18:28.995
3, 26927.21, -40733.48, -4740.74, -83866.02, -39209.23, -2804.23, -1132.16, -150825.91, 0.01, -0.46, 0.90, 11:18:29.000
4, 27032.02, -40713.05, -4723.77, -83837.14, -39188.17, -2779.24, -1111.87, -150803.02, 0.00, 0.00, 0.00, 11:18:29.003
5, 29049.35, -40478.20, -4487.69, -83602.47, -38951.36, -2548.14, -871.20, -150562.63, 0.00, 0.00, 0.00, 11:18:29.007
6, 29167.08, -40494.03, -4509.69, -83626.14, -38973.33, -2574.27, -890.78, -150584.08, 0.00, 0.00, 0.00, 11:18:29.012
7, 27158.08, -40714.30, -4740.42, -83846.13, -39201.92, -2793.99, -1117.56, -150812.52, 0.00, 0.00, 0.00, 11:18:29.015
8, 26777.48, -40728.32, -4759.09, -83853.28, -39215.73, -2799.20, -1131.15, -150825.19, 0.00, 0.00, 0.00, 11:18:29.019
9, 28690.23, -40504.33, -4534.39, -83628.98, -38988.55, -2576.04, -901.60, -150596.92, 0.00, 0.00, 0.00, 11:18:29.023
10, 29354.08, -40442.21, -4478.86, -83577.73, -38933.03, -2524.67, -841.61, -150539.73, 0.00, 0.00, 0.00, 11:18:29.028
11, 27448.19, -40671.99, -4722.61, -83812.52, -39174.34, -2756.69, -1079.79, -150777.36, 0.00, 0.00, 0.00, 11:18:29.031
12, 26624.53, -40769.31, -4830.37, -83903.46, -39276.64, -2847.52, -1178.94, -150877.80, 0.00, 0.00, 0.00, 11:18:29.035
13, 28297.80, -40573.51, -4636.47, -83703.23, -39078.45, -2647.16, -976.99, -150677.33, 0.02, -0.46, 0.90, 11:18:29.041
14, 29497.69, -40476.13, -4546.43, -83614.66, -38985.84, -2556.39, -879.74, -150581.86, 0.00, 0.00, 0.00, 11:18:29.043
15, 27809.97, -40686.28, -4769.84, -83831.69, -39208.27, -2768.98, -1098.79, -150800.89, 0.00, 0.00, 0.00, 11:18:29.047
16, 26552.13, -40804.72, -4895.55, -83943.49, -39330.96, -2878.73, -1219.51, -150922.13, 0.00, 0.00, 0.00, 11:18:29.052
17, 27854.18, -40612.00, -4702.99, -83744.43, -39135.54, -2681.92, -1020.71, -150726.48, 0.00, 0.00, 0.00, 11:18:29.055
18, 29458.95, -40441.17, -4535.19, -83583.25, -38966.93, -2519.33, -847.06, -150559.20, 0.00, 0.00, 0.00, 11:18:29.059
19, 28136.69, -40605.79, -4713.76, -83759.18, -39143.63, -2690.35, -1018.14, -150734.06, 0.00, 0.00, 0.00, 11:18:29.064
20, 26550.61, -40776.89, -4894.67, -83926.55, -39322.35, -2855.26, -1191.06, -150906.88, 0.00, 0.00, 0.00, 11:18:29.067
21, 27467.34, -40660.73, -4782.16, -83806.14, -39206.43, -2734.38, -1071.65, -150787.23, 0.00, 0.00, 0.00, 11:18:29.070
22, 29336.46, -40441.37, -4567.98, -83596.77, -38988.95, -2524.92, -850.28, -150568.63, 0.00, 0.00, 0.00, 11:18:29.076
23, 28451.49, -40544.03, -4683.38, -83712.98, -39101.54, -2638.22, -960.14, -150682.02, 0.02, -0.46, 0.89, 11:18:29.079
24, 26630.72, -40748.61, -4898.70, -83917.21, -39315.24, -2839.23, -1170.29, -150892.02, 0.00, 0.00, 0.00, 11:18:29.083
25, 27099.46, -40685.83, -4841.30, -83850.94, -39253.02, -2770.97, -1106.50, -150826.64, 0.00, 0.00, 0.00, 11:18:29.087
26, 29128.14, -40475.54, -4633.96, -83646.23, -39041.61, -2564.08, -892.53, -150614.08, 0.00, 0.00, 0.00, 11:18:29.092
27, 28789.98, -40518.73, -4688.99, -83703.86, -39093.63, -2614.55, -941.95, -150664.95, 0.00, 0.00, 0.00, 11:18:29.096
28, 26804.14, -40738.60, -4923.84, -83926.64, -39321.41, -2829.93, -1169.04, -150892.02, 0.00, 0.00, 0.00, 11:18:29.098
29, 26767.51, -40717.99, -4909.29, -83899.51, -39299.15, -2801.55, -1146.11, -150869.48, 0.00, 0.00, 0.00, 11:18:29.103
30, 28801.23, -40491.91, -4685.69, -83675.14, -39071.34, -2579.91, -915.62, -150641.86, 0.00, 0.00, 0.00, 11:18:29.107
31, 29063.64, -40486.54, -4689.91, -83681.09, -39072.46, -2586.57, -913.09, -150645.98, 0.00, 0.00, 0.00, 11:18:29.112
32, 27046.59, -40690.84, -4905.85, -83888.98, -39283.73, -2791.73, -1122.64, -150859.05, 0.00, 0.00, 0.00, 11:18:29.115
33, 26530.76, -40740.16, -4961.89, -83933.52, -39332.45, -2834.76, -1170.99, -150907.39, 0.01, -0.46, 0.89, 11:18:29.119
0, 0.00, 0.00, 0.00, 0.00, 0.00, 0.00, 0.00, 0.00, 0.02, -0.49, 0.89, 11:18:35.521
1, 11839.50, 0.00, 0.00, 0.00, -23724.63, 0.00, 0.00, 0.00, 0.00, 0.00, 0.00, 11:18:35.538
2, 13628.77, 0.00, 0.00, 0.00, -23121.02, 0.00, 0.00, 0.00, 0.00, 0.00, 0.00, 11:18:35.540
3, 14234.28, 0.00, 0.00, 0.00, -22929.58, 0.00, 0.00, 0.00, 0.00, 0.00, 0.00, 11:18:35.544
4, 12453.81, 0.00, 0.00, 0.00, -23537.19, 0.00, 0.00, 0.00, 0.00, 0.00, 0.00, 11:18:35.548
5, 11718.26, 0.00, 0.00, 0.00, -23778.84, 0.00, 0.00, 0.00, 0.00, 0.00, 0.00, 11:18:35.552
6, 13278.57, 0.00, 0.00, 0.00, -23244.74, 0.00, 0.00, 0.00, 0.00, 0.00, 0.00, 11:18:35.556
7, 14364.66, 0.00, 0.00, 0.00, -22887.58, 0.00, 0.00, 0.00, 0.02, -0.50, 0.89, 11:18:35.560
8, 12787.30, 0.00, 0.00, 0.00, -23415.55, 0.00, 0.00, 0.00, 0.00, 0.00, 0.00, 11:18:35.564
9, 11667.30, 0.00, 0.00, 0.00, -23793.70, 0.00, 0.00, 0.00, 0.00, 0.00, 0.00, 11:18:35.567
10, 12908.87, 0.00, 0.00, 0.00, -23357.95, 0.00, 0.00, 0.00, 0.00, 0.00, 0.00, 11:18:35.571
11, 14376.15, 0.00, 0.00, 0.00, -22855.46, 0.00, 0.00, 0.00, 0.00, 0.00, 0.00, 11:18:35.574
12, 13118.19, 0.00, 0.00, 0.00, -23275.27, 0.00, 0.00, 0.00, 0.00, 0.00, 0.00, 11:18:35.580
13, 11681.00, 0.00, 0.00, 0.00, -23750.45, 0.00, 0.00, 0.00, 0.00, 0.00, 0.00, 11:18:35.584
14, 12563.78, 0.00, 0.00, 0.00, -23465.46, 0.00, 0.00, 0.00, 0.00, 0.00, 0.00, 11:18:35.587
15, 14315.49, 0.00, 0.00, 0.00, -22876.67, 0.00, 0.00, 0.00, 0.00, 0.00, 0.00, 11:18:35.591
16, 13492.72, 0.00, 0.00, 0.00, -23144.94, 0.00, 0.00, 0.00, 0.00, 0.00, 0.00, 11:18:35.595
17, 11803.38, 0.00, 0.00, 0.00, -23700.98, 0.00, 0.00, 0.00, 0.02, -0.50, 0.88, 11:18:35.599
18, 12269.74, 0.00, 0.00, 0.00, -23557.58, 0.00, 0.00, 0.00, 0.00, 0.00, 0.00, 11:18:35.602
19, 14153.93, 0.00, 0.00, 0.00, -22957.21, 0.00, 0.00, 0.00, 0.00, 0.00, 0.00, 11:18:35.608
20, 13825.09, 0.00, 0.00, 0.00, -23070.96, 0.00, 0.00, 0.00, 0.00, 0.00, 0.00, 11:18:35.612
21, 12004.25, 0.00, 0.00, 0.00, -23664.60, 0.00, 0.00, 0.00, 0.00, 0.00, 0.00, 11:18:35.615
22, 12019.90, 0.00, 0.00, 0.00, -23635.34, 0.00, 0.00, 0.00, 0.00, 0.00, 0.00, 11:18:35.619
23, 13896.26, 0.00, 0.00, 0.00, -22982.87, 0.00, 0.00, 0.00, 0.00, 0.00, 0.00, 11:18:35.623
24, 14107.01, 0.00, 0.00, 0.00, -22925.20, 0.00, 0.00, 0.00, 0.00, 0.00, 0.00, 11:18:35.626
25, 12255.86, 0.00, 0.00, 0.00, -23545.55, 0.00, 0.00, 0.00, 0.00, 0.00, 0.00, 11:18:35.631
26, 11828.72, 0.00, 0.00, 0.00, -23654.27, 0.00, 0.00, 0.00, 0.00, 0.00, 0.00, 11:18:35.636
27, 13585.72, 0.00, 0.00, 0.00, -23098.07, 0.00, 0.00, 0.00, 0.01, -0.50, 0.87, 11:18:35.640
28, 14324.76, 0.00, 0.00, 0.00, -22872.40, 0.00, 0.00, 0.00, 0.00, 0.00, 0.00, 11:18:35.644
29, 12561.52, 0.00, 0.00, 0.00, -23442.67, 0.00, 0.00, 0.00, 0.00, 0.00, 0.00, 11:18:35.647
30, 11723.29, 0.00, 0.00, 0.00, -23691.19, 0.00, 0.00, 0.00, 0.00, 0.00, 0.00, 11:18:35.651
31, 13238.74, 0.00, 0.00, 0.00, -23183.54, 0.00, 0.00, 0.00, 0.00, 0.00, 0.00, 11:18:35.654
32, 14432.61, 0.00, 0.00, 0.00, -22807.09, 0.00, 0.00, 0.00, 0.00, 0.00, 0.00, 11:18:35.659
33, 12917.99, 0.00, 0.00, 0.00, -23307.71, 0.00, 0.00, 0.00, 0.00, 0.00, 0.00, 11:18:35.664
34, 11701.09, 0.00, 0.00, 0.00, -23686.23, 0.00, 0.00, 0.00, 0.00, 0.00, 0.00, 11:18:35.667
35, 12885.67, 0.00, 0.00, 0.00, -23288.75, 0.00, 0.00, 0.00, 0.00, 0.00, 0.00, 11:18:35.672
36, 14454.22, 0.00, 0.00, 0.00, -22790.91, 0.00, 0.00, 0.00, 0.00, 0.00, 0.00, 11:18:35.675
37, 13289.72, 0.00, 0.00, 0.00, -23191.70, 0.00, 0.00, 0.00, 0.02, -0.50, 0.89, 11:18:35.679
38, 11786.01, 0.00, 0.00, 0.00, -23663.21, 0.00, 0.00, 0.00, 0.00, 0.00, 0.00, 11:18:35.683
39, 12577.57, 0.00, 0.00, 0.00, -23385.91, 0.00, 0.00, 0.00, 0.00, 0.00, 0.00, 11:18:35.686
40, 14377.51, 0.00, 0.00, 0.00, -22797.50, 0.00, 0.00, 0.00, 0.00, 0.00, 0.00, 11:18:35.691
41, 13677.72, 0.00, 0.00, 0.00, -23060.76, 0.00, 0.00, 0.00, 0.00, 0.00, 0.00, 11:18:35.696
42, 11942.36, 0.00, 0.00, 0.00, -23607.44, 0.00, 0.00, 0.00, 0.00, 0.00, 0.00, 11:18:35.699
43, 12309.53, 0.00, 0.00, 0.00, -23469.04, 0.00, 0.00, 0.00, 0.00, 0.00, 0.00, 11:18:35.702
44, 14204.49, 0.00, 0.00, 0.00, -22844.53, 0.00, 0.00, 0.00, 0.00, 0.00, 0.00, 11:18:35.707
45, 14000.31, 0.00, 0.00, 0.00, -22931.46, 0.00, 0.00, 0.00, 0.00, 0.00, 0.00, 11:18:35.711
46, 12158.48, 0.00, 0.00, 0.00, -23546.31, 0.00, 0.00, 0.00, 0.00, 0.00, 0.00, 11:18:35.715
47, 12066.95, 0.00, 0.00, 0.00, -23547.76, 0.00, 0.00, 0.00, 0.02, -0.50, 0.88, 11:18:35.719
48, 13906.47, 0.00, 0.00, 0.00, -22922.16, 0.00, 0.00, 0.00, 0.00, 0.00, 0.00, 11:18:35.723
49, 14235.40, 0.00, 0.00, 0.00, -22805.04, 0.00, 0.00, 0.00, 0.00, 0.00, 0.00, 11:18:35.727
50, 12414.72, 0.00, 0.00, 0.00, -23433.81, 0.00, 0.00, 0.00, 0.00, 0.00, 0.00, 11:18:35.731
51, 11896.13, 0.00, 0.00, 0.00, -23598.99, 0.00, 0.00, 0.00, 0.00, 0.00, 0.00, 11:18:35.735
52, 13575.22, 0.00, 0.00, 0.00, -23028.06, 0.00, 0.00, 0.00, 0.00, 0.00, 0.00, 11:18:35.738
53, 14422.93, 0.00, 0.00, 0.00, -22765.23, 0.00, 0.00, 0.00, 0.00, 0.00, 0.00, 11:18:35.743
54, 12722.70, 0.00, 0.00, 0.00, -23311.91, 0.00, 0.00, 0.00, 0.00, 0.00, 0.00, 11:18:35.747
55, 11797.88, 0.00, 0.00, 0.00, -23593.18, 0.00, 0.00, 0.00, 0.00, 0.00, 0.00, 11:18:35.751
56, 13222.26, 0.00, 0.00, 0.00, -23116.64, 0.00, 0.00, 0.00, 0.02, -0.49, 0.88, 11:18:35.755
57, 14506.55, 0.00, 0.00, 0.00, -22683.73, 0.00, 0.00, 0.00, 0.00, 0.00, 0.00, 11:18:35.759
58, 13078.16, 0.00, 0.00, 0.00, -23165.66, 0.00, 0.00, 0.00, 0.00, 0.00, 0.00, 11:18:35.763
59, 11791.30, 0.00, 0.00, 0.00, -23558.45, 0.00, 0.00, 0.00, 0.00, 0.00, 0.00, 11:18:35.767
60, 12881.56, 0.00, 0.00, 0.00, -23187.52, 0.00, 0.00, 0.00, 0.00, 0.00, 0.00, 11:18:35.771
61, 14509.81, 0.00, 0.00, 0.00, -22681.59, 0.00, 0.00, 0.00, 0.00, 0.00, 0.00, 11:18:35.775
62, 13446.16, 0.00, 0.00, 0.00, -23052.65, 0.00, 0.00, 0.00, 0.00, 0.00, 0.00, 11:18:35.780
63, 11882.83, 0.00, 0.00, 0.00, -23537.01, 0.00, 0.00, 0.00, 0.00, 0.00, 0.00, 11:18:35.783
64, 12574.51, 0.00, 0.00, 0.00, -23306.48, 0.00, 0.00, 0.00, 0.00, 0.00, 0.00, 11:18:35.787
65, 14391.86, 0.00, 0.00, 0.00, -22724.55, 0.00, 0.00, 0.00, 0.00, 0.00, 0.00, 11:18:35.791
66, 13801.55, 0.00, 0.00, 0.00, -22948.20, 0.00, 0.00, 0.00, 0.01, -0.50, 0.89, 11:18:35.795
67, 12062.30, 0.00, 0.00, 0.00, -23510.77, 0.00, 0.00, 0.00, 0.00, 0.00, 0.00, 11:18:35.798
68, 12302.82, 0.00, 0.00, 0.00, -23415.13, 0.00, 0.00, 0.00, 0.00, 0.00, 0.00, 11:18:35.803
69, 14162.22, 0.00, 0.00, 0.00, -22798.67, 0.00, 0.00, 0.00, 0.00, 0.00, 0.00, 11:18:35.807
70, 14094.32, 0.00, 0.00, 0.00, -22807.07, 0.00, 0.00, 0.00, 0.00, 0.00, 0.00, 11:18:35.811
71, 12257.99, 0.00, 0.00, 0.00, -23396.96, 0.00, 0.00, 0.00, 0.00, 0.00, 0.00, 11:18:35.815
72, 12068.47, 0.00, 0.00, 0.00, -23448.12, 0.00, 0.00, 0.00, 0.00, 0.00, 0.00, 11:18:35.819
73, 13874.42, 0.00, 0.00, 0.00, -22840.80, 0.00, 0.00, 0.00, 0.00, 0.00, 0.00, 11:18:35.823
74, 14333.82, 0.00, 0.00, 0.00, -22694.42, 0.00, 0.00, 0.00, 0.00, 0.00, 0.00, 11:18:35.825
75, 12525.74, 0.00, 0.00, 0.00, -23309.02, 0.00, 0.00, 0.00, 0.00, 0.00, 0.00, 11:18:35.831
76, 11898.44, 0.00, 0.00, 0.00, -23502.63, 0.00, 0.00, 0.00, 0.01, -0.50, 0.87, 11:18:35.835
77, 13532.82, 0.00, 0.00, 0.00, -22964.43, 0.00, 0.00, 0.00, 0.00, 0.00, 0.00, 11:18:35.839
78, 14501.19, 0.00, 0.00, 0.00, -22668.58, 0.00, 0.00, 0.00, 0.00, 0.00, 0.00, 11:18:35.843
79, 12867.92, 0.00, 0.00, 0.00, -23205.36, 0.00, 0.00, 0.00, 0.00, 0.00, 0.00, 11:18:35.847
80, 11849.13, 0.00, 0.00, 0.00, -23496.35, 0.00, 0.00, 0.00, 0.00, 0.00, 0.00, 11:18:35.851
81, 13193.59, 0.00, 0.00, 0.00, -23057.99, 0.00, 0.00, 0.00, 0.00, 0.00, 0.00, 11:18:35.854
82, 14562.03, 0.00, 0.00, 0.00, -22631.52, 0.00, 0.00, 0.00, 0.00, 0.00, 0.00, 11:18:35.859
83, 13215.45, 0.00, 0.00, 0.00, -23078.11, 0.00, 0.00, 0.00, 0.00, 0.00, 0.00, 11:18:35.863
84, 11878.14, 0.00, 0.00, 0.00, -23505.90, 0.00, 0.00, 0.00, 0.00, 0.00, 0.00, 11:18:35.867
85, 12835.38, 0.00, 0.00, 0.00, -23179.52, 0.00, 0.00, 0.00, 0.00, 0.00, 0.00, 11:18:35.871
86, 14497.79, 0.00, 0.00, 0.00, -22614.91, 0.00, 0.00, 0.00, 0.02, -0.51, 0.87, 11:18:35.875
87, 13561.90, 0.00, 0.00, 0.00, -22946.10, 0.00, 0.00, 0.00, 0.00, 0.00, 0.00, 11:18:35.879
88, 11956.66, 0.00, 0.00, 0.00, -23466.63, 0.00, 0.00, 0.00, 0.00, 0.00, 0.00, 11:18:35.882
89, 12522.18, 0.00, 0.00, 0.00, -23273.22, 0.00, 0.00, 0.00, 0.00, 0.00, 0.00, 11:18:35.886
90, 14366.16, 0.00, 0.00, 0.00, -22679.06, 0.00, 0.00, 0.00, 0.00, 0.00, 0.00, 11:18:35.891
91, 13906.88, 0.00, 0.00, 0.00, -22841.38, 0.00, 0.00, 0.00, 0.00, 0.00, 0.00, 11:18:35.895
92, 12125.96, 0.00, 0.00, 0.00, -23411.08, 0.00, 0.00, 0.00, 0.00, 0.00, 0.00, 11:18:35.900
93, 12255.59, 0.00, 0.00, 0.00, -23339.89, 0.00, 0.00, 0.00, 0.00, 0.00, 0.00, 11:18:35.902
94, 14103.93, 0.00, 0.00, 0.00, -22734.36, 0.00, 0.00, 0.00, 0.00, 0.00, 0.00, 11:18:35.906
95, 14163.81, 0.00, 0.00, 0.00, -22728.01, 0.00, 0.00, 0.00, 0.00, 0.00, 0.00, 11:18:35.911
96, 12345.45, 0.00, 0.00, 0.00, -23325.59, 0.00, 0.00, 0.00, 0.01, -0.50, 0.88, 11:18:35.914
97, 12030.29, 0.00, 0.00, 0.00, -23388.13, 0.00, 0.00, 0.00, 0.00, 0.00, 0.00, 11:18:35.919
98, 13780.21, 0.00, 0.00, 0.00, -22791.22, 0.00, 0.00, 0.00, 0.00, 0.00, 0.00, 11:18:35.924
99, 14363.19, 0.00, 0.00, 0.00, -22622.29, 0.00, 0.00, 0.00, 0.00, 0.00, 0.00, 11:18:35.927
100, 12595.12, 0.00, 0.00, 0.00, -23225.00, 0.00, 0.00, 0.00, 0.00, 0.00, 0.00, 11:18:35.930
101, 11880.69, 0.00, 0.00, 0.00, -23460.35, 0.00, 0.00, 0.00, 0.00, 0.00, 0.00, 11:18:35.934
102, 13417.42, 0.00, 0.00, 0.00, -22931.44, 0.00, 0.00, 0.00, 0.00, 0.00, 0.00, 11:18:35.938
103, 14469.94, 0.00, 0.00, 0.00, -22555.17, 0.00, 0.00, 0.00, 0.00, 0.00, 0.00, 11:18:35.942
104, 12921.21, 0.00, 0.00, 0.00, -23081.48, 0.00, 0.00, 0.00, 0.00, 0.00, 0.00, 11:18:35.947
105, 11844.55, 0.00, 0.00, 0.00, -23438.29, 0.00, 0.00, 0.00, 0.01, -0.50, 0.87, 11:18:35.951
106, 13078.65, 0.00, 0.00, 0.00, -23026.32, 0.00, 0.00, 0.00, 0.00, 0.00, 0.00, 11:18:35.955
107, 14521.39, 0.00, 0.00, 0.00, -22560.55, 0.00, 0.00, 0.00, 0.00, 0.00, 0.00, 11:18:35.958
108, 13274.70, 0.00, 0.00, 0.00, -22972.63, 0.00, 0.00, 0.00, 0.00, 0.00, 0.00, 11:18:35.962
109, 11869.16, 0.00, 0.00, 0.00, -23453.71, 0.00, 0.00, 0.00, 0.00, 0.00, 0.00, 11:18:35.966
110, 12733.50, 0.00, 0.00, 0.00, -23139.73, 0.00, 0.00, 0.00, 0.00, 0.00, 0.00, 11:18:35.971
111, 14440.66, 0.00, 0.00, 0.00, -22569.92, 0.00, 0.00, 0.00, 0.00, 0.00, 0.00, 11:18:35.975
112, 13640.42, 0.00, 0.00, 0.00, -22869.79, 0.00, 0.00, 0.00, 0.00, 0.00, 0.00, 11:18:35.979
113, 11991.62, 0.00, 0.00, 0.00, -23407.10, 0.00, 0.00, 0.00, 0.00, 0.00, 0.00, 11:18:35.983
114, 12428.20, 0.00, 0.00, 0.00, -23239.53, 0.00, 0.00, 0.00, 0.00, 0.00, 0.00, 11:18:35.986
115, 14297.99, 0.00, 0.00, 0.00, -22642.29, 0.00, 0.00, 0.00, 0.02, -0.50, 0.87, 11:18:35.991
116, 13996.28, 0.00, 0.00, 0.00, -22762.10, 0.00, 0.00, 0.00, 0.00, 0.00, 0.00, 11:18:35.994
117, 12148.96, 0.00, 0.00, 0.00, -23357.93, 0.00, 0.00, 0.00, 0.00, 0.00, 0.00, 11:18:35.998
118, 12157.02, 0.00, 0.00, 0.00, -23343.54, 0.00, 0.00, 0.00, 0.00, 0.00, 0.00, 11:18:36.003
119, 14037.50, 0.00, 0.00, 0.00, -22730.45, 0.00, 0.00, 0.00, 0.00, 0.00, 0.00, 11:18:36.007
120, 14269.08, 0.00, 0.00, 0.00, -22656.44, 0.00, 0.00, 0.00, 0.00, 0.00, 0.00, 11:18:36.010
121, 12425.36, 0.00, 0.00, 0.00, -23265.28, 0.00, 0.00, 0.00, 0.00, 0.00, 0.00, 11:18:36.015
122, 11992.16, 0.00, 0.00, 0.00, -23381.44, 0.00, 0.00, 0.00, 0.00, 0.00, 0.00, 11:18:36.018
123, 13725.74, 0.00, 0.00, 0.00, -22789.44, 0.00, 0.00, 0.00, 0.00, 0.00, 0.00, 11:18:36.022
124, 14470.50, 0.00, 0.00, 0.00, -22560.67, 0.00, 0.00, 0.00, 0.00, 0.00, 0.00, 11:18:36.026
125, 12737.54, 0.00, 0.00, 0.00, -23131.44, 0.00, 0.00, 0.00, 0.01, -0.50, 0.88, 11:18:36.031
126, 11903.56, 0.00, 0.00, 0.00, -23381.06, 0.00, 0.00, 0.00, 0.00, 0.00, 0.00, 11:18:36.035
127, 13395.49, 0.00, 0.00, 0.00, -22869.72, 0.00, 0.00, 0.00, 0.00, 0.00, 0.00, 11:18:36.038
128, 14583.62, 0.00, 0.00, 0.00, -22477.23, 0.00, 0.00, 0.00, 0.00, 0.00, 0.00, 11:18:36.043
129, 13073.65, 0.00, 0.00, 0.00, -22982.91, 0.00, 0.00, 0.00, 0.00, 0.00, 0.00, 11:18:36.046
130, 11884.02, 0.00, 0.00, 0.00, -23370.67, 0.00, 0.00, 0.00, 0.00, 0.00, 0.00, 11:18:36.050
131, 13058.04, 0.00, 0.00, 0.00, -22960.58, 0.00, 0.00, 0.00, 0.00, 0.00, 0.00, 11:18:36.054
132, 14613.15, 0.00, 0.00, 0.00, -22483.19, 0.00, 0.00, 0.00, 0.00, 0.00, 0.00, 11:18:36.059
133, 13450.59, 0.00, 0.00, 0.00, -22880.88, 0.00, 0.00, 0.00, 0.00, 0.00, 0.00, 11:18:36.063
134, 11940.77, 0.00, 0.00, 0.00, -23347.67, 0.00, 0.00, 0.00, 0.00, 0.00, 0.00, 11:18:36.066
135, 12716.89, 0.00, 0.00, 0.00, -23073.66, 0.00, 0.00, 0.00, 0.02, -0.50, 0.88, 11:18:36.070
136, 14483.10, 0.00, 0.00, 0.00, -22482.95, 0.00, 0.00, 0.00, 0.00, 0.00, 0.00, 11:18:36.079
137, 13782.22, 0.00, 0.00, 0.00, -22743.86, 0.00, 0.00, 0.00, 0.00, 0.00, 0.00, 11:18:36.079
138, 12049.24, 0.00, 0.00, 0.00, -23312.33, 0.00, 0.00, 0.00, 0.00, 0.00, 0.00, 11:18:36.082
139, 12388.41, 0.00, 0.00, 0.00, -23192.39, 0.00, 0.00, 0.00, 0.00, 0.00, 0.00, 11:18:36.086
140, 14256.34, 0.00, 0.00, 0.00, -22571.06, 0.00, 0.00, 0.00, 0.00, 0.00, 0.00, 11:18:36.091
141, 14054.87, 0.00, 0.00, 0.00, -22630.38, 0.00, 0.00, 0.00, 0.00, 0.00, 0.00, 11:18:36.094
142, 12232.06, 0.00, 0.00, 0.00, -23198.36, 0.00, 0.00, 0.00, 0.00, 0.00, 0.00, 11:18:36.098
143, 12169.21, 0.00, 0.00, 0.00, -23209.45, 0.00, 0.00, 0.00, 0.00, 0.00, 0.00, 11:18:36.103
144, 14016.09, 0.00, 0.00, 0.00, -22611.90, 0.00, 0.00, 0.00, 0.02, -0.50, 0.87, 11:18:36.106
145, 14351.50, 0.00, 0.00, 0.00, -22517.19, 0.00, 0.00, 0.00, 0.00, 0.00, 0.00, 11:18:36.111
146, 12550.55, 0.00, 0.00, 0.00, -23109.76, 0.00, 0.00, 0.00, 0.00, 0.00, 0.00, 11:18:36.115
147, 12036.93, 0.00, 0.00, 0.00, -23268.21, 0.00, 0.00, 0.00, 0.00, 0.00, 0.00, 11:18:36.119
148, 13699.74, 0.00, 0.00, 0.00, -22711.43, 0.00, 0.00, 0.00, 0.00, 0.00, 0.00, 11:18:36.122
149, 14544.79, 0.00, 0.00, 0.00, -22431.81, 0.00, 0.00, 0.00, 0.00, 0.00, 0.00, 11:18:36.127
150, 12870.92, 0.00, 0.00, 0.00, -23002.25, 0.00, 0.00, 0.00, 0.00, 0.00, 0.00, 11:18:36.130
151, 11965.76, 0.00, 0.00, 0.00, -23300.33, 0.00, 0.00, 0.00, 0.00, 0.00, 0.00, 11:18:36.134
152, 13368.31, 0.00, 0.00, 0.00, -22836.51, 0.00, 0.00, 0.00, 0.00, 0.00, 0.00, 11:18:36.139
153, 14641.82, 0.00, 0.00, 0.00, -22422.69, 0.00, 0.00, 0.00, 0.00, 0.00, 0.00, 11:18:36.142
154, 13217.84, 0.00, 0.00, 0.00, -22876.14, 0.00, 0.00, 0.00, 0.01, -0.50, 0.88, 11:18:36.147
155, 11962.21, 0.00, 0.00, 0.00, -23274.27, 0.00, 0.00, 0.00, 0.00, 0.00, 0.00, 11:18:36.151
156, 13024.92, 0.00, 0.00, 0.00, -22929.85, 0.00, 0.00, 0.00, 0.00, 0.00, 0.00, 11:18:36.154
157, 14617.21, 0.00, 0.00, 0.00, -22416.70, 0.00, 0.00, 0.00, 0.00, 0.00, 0.00, 11:18:36.159
158, 13572.43, 0.00, 0.00, 0.00, -22761.09, 0.00, 0.00, 0.00, 0.00, 0.00, 0.00, 11:18:36.162
159, 12018.85, 0.00, 0.00, 0.00, -23266.00, 0.00, 0.00, 0.00, 0.00, 0.00, 0.00, 11:18:36.166
160, 12687.18, 0.00, 0.00, 0.00, -23028.53, 0.00, 0.00, 0.00, 0.00, 0.00, 0.00, 11:18:36.170
161, 14480.96, 0.00, 0.00, 0.00, -22439.07, 0.00, 0.00, 0.00, 0.00, 0.00, 0.00, 11:18:36.174
162, 13899.68, 0.00, 0.00, 0.00, -22647.48, 0.00, 0.00, 0.00, 0.00, 0.00, 0.00, 11:18:36.177
163, 12147.48, 0.00, 0.00, 0.00, -23219.13, 0.00, 0.00, 0.00, 0.00, 0.00, 0.00, 11:18:36.182
164, 12390.31, 0.00, 0.00, 0.00, -23114.47, 0.00, 0.00, 0.00, 0.01, -0.50, 0.87, 11:18:36.186
165, 14225.19, 0.00, 0.00, 0.00, -22511.47, 0.00, 0.00, 0.00, 0.00, 0.00, 0.00, 11:18:36.191
166, 14174.69, 0.00, 0.00, 0.00, -22546.16, 0.00, 0.00, 0.00, 0.00, 0.00, 0.00, 11:18:36.194
167, 12358.08, 0.00, 0.00, 0.00, -23126.25, 0.00, 0.00, 0.00, 0.00, 0.00, 0.00, 11:18:36.199
168, 12156.42, 0.00, 0.00, 0.00, -23175.85, 0.00, 0.00, 0.00, 0.00, 0.00, 0.00, 11:18:36.202
169, 13943.87, 0.00, 0.00, 0.00, -22594.24, 0.00, 0.00, 0.00, 0.00, 0.00, 0.00, 11:18:36.206
170, 14418.86, 0.00, 0.00, 0.00, -22453.11, 0.00, 0.00, 0.00, 0.00, 0.00, 0.00, 11:18:36.209
171, 12610.72, 0.00, 0.00, 0.00, -23035.08, 0.00, 0.00, 0.00, 0.00, 0.00, 0.00, 11:18:36.214
172, 11971.57, 0.00, 0.00, 0.00, -23228.11, 0.00, 0.00, 0.00, 0.00, 0.00, 0.00, 11:18:36.219
173, 13586.37, 0.00, 0.00, 0.00, -22714.18, 0.00, 0.00, 0.00, 0.00, 0.00, 0.00, 11:18:36.222
174, 14546.47, 0.00, 0.00, 0.00, -22404.36, 0.00, 0.00, 0.00, 0.01, -0.51, 0.88, 11:18:36.226
175, 12936.94, 0.00, 0.00, 0.00, -22938.72, 0.00, 0.00, 0.00, 0.00, 0.00, 0.00, 11:18:36.231
176, 11904.34, 0.00, 0.00, 0.00, -23231.04, 0.00, 0.00, 0.00, 0.00, 0.00, 0.00, 11:18:36.233
177, 13229.17, 0.00, 0.00, 0.00, -22782.04, 0.00, 0.00, 0.00, 0.00, 0.00, 0.00, 11:18:36.239
178, 14618.87, 0.00, 0.00, 0.00, -22358.74, 0.00, 0.00, 0.00, 0.00, 0.00, 0.00, 11:18:36.243
179, 13277.36, 0.00, 0.00, 0.00, -22794.46, 0.00, 0.00, 0.00, 0.00, 0.00, 0.00, 11:18:36.246
180, 11924.86, 0.00, 0.00, 0.00, -23226.26, 0.00, 0.00, 0.00, 0.00, 0.00, 0.00, 11:18:36.250
181, 12883.90, 0.00, 0.00, 0.00, -22909.69, 0.00, 0.00, 0.00, 0.00, 0.00, 0.00, 11:18:36.255
182, 14554.74, 0.00, 0.00, 0.00, -22365.87, 0.00, 0.00, 0.00, 0.00, 0.00, 0.00, 11:18:36.257
183, 13638.05, 0.00, 0.00, 0.00, -22679.53, 0.00, 0.00, 0.00, 0.00, 0.00, 0.00, 11:18:36.262
184, 12020.95, 0.00, 0.00, 0.00, -23186.38, 0.00, 0.00, 0.00, 0.02, -0.49, 0.88, 11:18:36.265
185, 12579.02, 0.00, 0.00, 0.00, -22996.55, 0.00, 0.00, 0.00, 0.00, 0.00, 0.00, 11:18:36.270
186, 14408.90, 0.00, 0.00, 0.00, -22378.88, 0.00, 0.00, 0.00, 0.00, 0.00, 0.00, 11:18:36.275
187, 13968.92, 0.00, 0.00, 0.00, -22540.57, 0.00, 0.00, 0.00, 0.00, 0.00, 0.00, 11:18:36.279
188, 12184.63, 0.00, 0.00, 0.00, -23118.77, 0.00, 0.00, 0.00, 0.00, 0.00, 0.00, 11:18:36.281
189, 12299.00, 0.00, 0.00, 0.00, -23060.27, 0.00, 0.00, 0.00, 0.00, 0.00, 0.00, 11:18:36.286
190, 14165.73, 0.00, 0.00, 0.00, -22452.95, 0.00, 0.00, 0.00, 0.00, 0.00, 0.00, 11:18:36.290
191, 14243.47, 0.00, 0.00, 0.00, -22435.50, 0.00, 0.00, 0.00, 0.00, 0.00, 0.00, 11:18:36.293
192, 12405.13, 0.00, 0.00, 0.00, -23027.64, 0.00, 0.00, 0.00, 0.00, 0.00, 0.00, 11:18:36.298
193, 12091.40, 0.00, 0.00, 0.00, -23118.88, 0.00, 0.00, 0.00, 0.01, -0.51, 0.87, 11:18:36.302
194, 13856.05, 0.00, 0.00, 0.00, -22538.63, 0.00, 0.00, 0.00, 0.00, 0.00, 0.00, 11:18:36.307
195, 14454.69, 0.00, 0.00, 0.00, -22341.17, 0.00, 0.00, 0.00, 0.00, 0.00, 0.00, 11:18:36.309
196, 12696.77, 0.00, 0.00, 0.00, -22922.74, 0.00, 0.00, 0.00, 0.00, 0.00, 0.00, 11:18:36.314
197, 11955.63, 0.00, 0.00, 0.00, -23155.83, 0.00, 0.00, 0.00, 0.00, 0.00, 0.00, 11:18:36.320
198, 13497.59, 0.00, 0.00, 0.00, -22651.64, 0.00, 0.00, 0.00, 0.00, 0.00, 0.00, 11:18:36.322
199, 14585.74, 0.00, 0.00, 0.00, -22292.65, 0.00, 0.00, 0.00, 0.00, 0.00, 0.00, 11:18:36.327
200, 13021.41, 0.00, 0.00, 0.00, -22812.66, 0.00, 0.00, 0.00, 0.00, 0.00, 0.00, 11:18:36.331
201, 11909.97, 0.00, 0.00, 0.00, -23176.72, 0.00, 0.00, 0.00, 0.00, 0.00, 0.00, 11:18:36.336
202, 13156.17, 0.00, 0.00, 0.00, -22775.24, 0.00, 0.00, 0.00, 0.00, 0.00, 0.00, 11:18:36.339
203, 14634.54, 0.00, 0.00, 0.00, -22286.72, 0.00, 0.00, 0.00, 0.02, -0.50, 0.87, 11:18:36.343
204, 13393.77, 0.00, 0.00, 0.00, -22703.47, 0.00, 0.00, 0.00, 0.00, 0.00, 0.00, 11:18:36.345
205, 11972.33, 0.00, 0.00, 0.00, -23158.28, 0.00, 0.00, 0.00, 0.00, 0.00, 0.00, 11:18:36.350
206, 12824.20, 0.00, 0.00, 0.00, -22850.61, 0.00, 0.00, 0.00, 0.00, 0.00, 0.00, 11:18:36.353
207, 14544.30, 0.00, 0.00, 0.00, -22249.66, 0.00, 0.00, 0.00, 0.00, 0.00, 0.00, 11:18:36.359
208, 13721.36, 0.00, 0.00, 0.00, -22530.76, 0.00, 0.00, 0.00, 0.00, 0.00, 0.00, 11:18:36.364
209, 12057.76, 0.00, 0.00, 0.00, -23073.73, 0.00, 0.00, 0.00, 0.00, 0.00, 0.00, 11:18:36.367
210, 12510.58, 0.00, 0.00, 0.00, -22914.58, 0.00, 0.00, 0.00, 0.00, 0.00, 0.00, 11:18:36.369
211, 14379.41, 0.00, 0.00, 0.00, -22297.59, 0.00, 0.00, 0.00, 0.00, 0.00, 0.00, 11:18:36.374
212, 14071.61, 0.00, 0.00, 0.00, -22404.58, 0.00, 0.00, 0.00, 0.00, 0.00, 0.00, 11:18:36.377
213, 12243.41, 0.00, 0.00, 0.00, -22998.00, 0.00, 0.00, 0.00, 0.01, -0.50, 0.87, 11:18:36.382
214, 12243.32, 0.00, 0.00, 0.00, -22985.86, 0.00, 0.00, 0.00, 0.00, 0.00, 0.00, 11:18:36.387
215, 14103.68, 0.00, 0.00, 0.00, -22371.95, 0.00, 0.00, 0.00, 0.00, 0.00, 0.00, 11:18:36.389
216, 14311.02, 0.00, 0.00, 0.00, -22295.44, 0.00, 0.00, 0.00, 0.00, 0.00, 0.00, 11:18:36.394
217, 12469.55, 0.00, 0.00, 0.00, -22906.04, 0.00, 0.00, 0.00, 0.00, 0.00, 0.00, 11:18:36.397
218, 12060.35, 0.00, 0.00, 0.00, -23029.47, 0.00, 0.00, 0.00, 0.00, 0.00, 0.00, 11:18:36.402
219, 13766.24, 0.00, 0.00, 0.00, -22466.36, 0.00, 0.00, 0.00, 0.00, 0.00, 0.00, 11:18:36.406
220, 14503.96, 0.00, 0.00, 0.00, -22231.42, 0.00, 0.00, 0.00, 0.00, 0.00, 0.00, 11:18:36.410
221, 12763.94, 0.00, 0.00, 0.00, -22820.95, 0.00, 0.00, 0.00, 0.00, 0.00, 0.00, 11:18:36.415
222, 11922.51, 0.00, 0.00, 0.00, -23086.60, 0.00, 0.00, 0.00, 0.00, 0.00, 0.00, 11:18:36.417
223, 13411.85, 0.00, 0.00, 0.00, -22592.85, 0.00, 0.00, 0.00, 0.01, -0.50, 0.88, 11:18:36.422
224, 14617.79, 0.00, 0.00, 0.00, -22206.84, 0.00, 0.00, 0.00, 0.00, 0.00, 0.00, 11:18:36.426
225, 13101.32, 0.00, 0.00, 0.00, -22703.63, 0.00, 0.00, 0.00, 0.00, 0.00, 0.00, 11:18:36.429
226, 11893.00, 0.00, 0.00, 0.00, -23116.64, 0.00, 0.00, 0.00, 0.00, 0.00, 0.00, 11:18:36.434
227, 13053.26, 0.00, 0.00, 0.00, -22714.40, 0.00, 0.00, 0.00, 0.00, 0.00, 0.00, 11:18:36.437
228, 14592.92, 0.00, 0.00, 0.00, -22188.55, 0.00, 0.00, 0.00, 0.00, 0.00, 0.00, 11:18:36.443
229, 13437.38, 0.00, 0.00, 0.00, -22584.34, 0.00, 0.00, 0.00, 0.00, 0.00, 0.00, 11:18:36.445
230, 11937.33, 0.00, 0.00, 0.00, -23085.19, 0.00, 0.00, 0.00, 0.00, 0.00, 0.00, 11:18:36.450
231, 12697.67, 0.00, 0.00, 0.00, -22828.60, 0.00, 0.00, 0.00, 0.00, 0.00, 0.00, 11:18:36.453
232, 14491.80, 0.00, 0.00, 0.00, -22253.42, 0.00, 0.00, 0.00, 0.00, 0.00, 0.00, 11:18:36.458
233, 13810.32, 0.00, 0.00, 0.00, -22510.13, 0.00, 0.00, 0.00, 0.02, -0.50, 0.88, 11:18:36.462
234, 12086.28, 0.00, 0.00, 0.00, -23064.72, 0.00, 0.00, 0.00, 0.00, 0.00, 0.00, 11:18:36.465
235, 12421.87, 0.00, 0.00, 0.00, -22906.85, 0.00, 0.00, 0.00, 0.00, 0.00, 0.00, 11:18:36.471
236, 14293.56, 0.00, 0.00, 0.00, -22281.69, 0.00, 0.00, 0.00, 0.00, 0.00, 0.00, 11:18:36.473
237, 14118.34, 0.00, 0.00, 0.00, -22358.54, 0.00, 0.00, 0.00, 0.00, 0.00, 0.00, 11:18:36.478
238, 12282.57, 0.00, 0.00, 0.00, -22947.57, 0.00, 0.00, 0.00, 0.00, 0.00, 0.00, 11:18:36.482
239, 12181.23, 0.00, 0.00, 0.00, -22973.61, 0.00, 0.00, 0.00, 0.00, 0.00, 0.00, 11:18:36.486
240, 14020.85, 0.00, 0.00, 0.00, -22380.71, 0.00, 0.00, 0.00, 0.00, 0.00, 0.00, 11:18:36.490
241, 14361.40, 0.00, 0.00, 0.00, -22265.80, 0.00, 0.00, 0.00, 0.00, 0.00, 0.00, 11:18:36.493
242, 12538.66, 0.00, 0.00, 0.00, -22867.96, 0.00, 0.00, 0.00, 0.02, -0.51, 0.88, 11:18:36.498
243, 12000.90, 0.00, 0.00, 0.00, -23017.76, 0.00, 0.00, 0.00, 0.00, 0.00, 0.00, 11:18:36.502
244, 13674.82, 0.00, 0.00, 0.00, -22421.53, 0.00, 0.00, 0.00, 0.00, 0.00, 0.00, 11:18:36.506
245, 14547.12, 0.00, 0.00, 0.00, -22164.46, 0.00, 0.00, 0.00, 0.00, 0.00, 0.00, 11:18:36.509
246, 12860.84, 0.00, 0.00, 0.00, -22713.60, 0.00, 0.00, 0.00, 0.00, 0.00, 0.00, 11:18:36.514
247, 11938.04, 0.00, 0.00, 0.00, -22995.05, 0.00, 0.00, 0.00, 0.00, 0.00, 0.00, 11:18:36.517
248, 13351.23, 0.00, 0.00, 0.00, -22514.11, 0.00, 0.00, 0.00, 0.00, 0.00, 0.00, 11:18:36.522
249, 14645.22, 0.00, 0.00, 0.00, -22112.78, 0.00, 0.00, 0.00, 0.00, 0.00, 0.00, 11:18:36.524
250, 13216.32, 0.00, 0.00, 0.00, -22566.23, 0.00, 0.00, 0.00, 0.00, 0.00, 0.00, 11:18:36.529
251, 11929.10, 0.00, 0.00, 0.00, -22983.49, 0.00, 0.00, 0.00, 0.00, 0.00, 0.00, 11:18:36.533
252, 13008.40, 0.00, 0.00, 0.00, -22599.20, 0.00, 0.00, 0.00, 0.02, -0.49, 0.88, 11:18:36.537
253, 14629.98, 0.00, 0.00, 0.00, -22074.25, 0.00, 0.00, 0.00, 0.00, 0.00, 0.00, 11:18:36.542
254, 13587.27, 0.00, 0.00, 0.00, -22416.68, 0.00, 0.00, 0.00, 0.00, 0.00, 0.00, 11:18:36.546
255, 12014.69, 0.00, 0.00, 0.00, -22914.31, 0.00, 0.00, 0.00, 0.00, 0.00, 0.00, 11:18:36.549
0, 12672.08, 0.00, 0.00, 0.00, -22700.19, 0.00, 0.00, 0.00, 0.00, 0.00, 0.00, 11:18:36.554
1, 14500.78, 0.00, 0.00, 0.00, -22111.51, 0.00, 0.00, 0.00, 0.00, 0.00, 0.00, 11:18:36.556
2, 13946.57, 0.00, 0.00, 0.00, -22304.63, 0.00, 0.00, 0.00, 0.00, 0.00, 0.00, 11:18:36.561
3, 12182.75, 0.00, 0.00, 0.00, -22885.37, 0.00, 0.00, 0.00, 0.00, 0.00, 0.00, 11:18:36.565
4, 12397.04, 0.00, 0.00, 0.00, -22795.78, 0.00, 0.00, 0.00, 0.00, 0.00, 0.00, 11:18:36.569
5, 14268.66, 0.00, 0.00, 0.00, -22198.14, 0.00, 0.00, 0.00, 0.00, 0.00, 0.00, 11:18:36.574
6, 14234.98, 0.00, 0.00, 0.00, -22225.90, 0.00, 0.00, 0.00, 0.02, -0.50, 0.87, 11:18:36.578
7, 12393.30, 0.00, 0.00, 0.00, -22826.49, 0.00, 0.00, 0.00, 0.00, 0.00, 0.00, 11:18:36.581
8, 12175.69, 0.00, 0.00, 0.00, -22852.02, 0.00, 0.00, 0.00, 0.00, 0.00, 0.00, 11:18:36.585
9, 13973.39, 0.00, 0.00, 0.00, -22254.20, 0.00, 0.00, 0.00, 0.00, 0.00, 0.00, 11:18:36.588
10, 14468.06, 0.00, 0.00, 0.00, -22123.89, 0.00, 0.00, 0.00, 0.00, 0.00, 0.00, 11:18:36.594
11, 12677.31, 0.00, 0.00, 0.00, -22728.86, 0.00, 0.00, 0.00, 0.00, 0.00, 0.00, 11:18:36.598
12, 12046.54, 0.00, 0.00, 0.00, -22933.60, 0.00, 0.00, 0.00, 0.00, 0.00, 0.00, 11:18:36.601
13, 13655.53, 0.00, 0.00, 0.00, -22388.69, 0.00, 0.00, 0.00, 0.00, 0.00, 0.00, 11:18:36.606
14, 14640.64, 0.00, 0.00, 0.00, -22055.90, 0.00, 0.00, 0.00, 0.00, 0.00, 0.00, 11:18:36.608
15, 13012.54, 0.00, 0.00, 0.00, -22607.04, 0.00, 0.00, 0.00, 0.00, 0.00, 0.00, 11:18:36.613
16, 11980.67, 0.00, 0.00, 0.00, -22952.49, 0.00, 0.00, 0.00, 0.01, -0.49, 0.88, 11:18:36.616
17, 13302.73, 0.00, 0.00, 0.00, -22523.88, 0.00, 0.00, 0.00, 0.00, 0.00, 0.00, 11:18:36.621
18, 14690.95, 0.00, 0.00, 0.00, -22073.26, 0.00, 0.00, 0.00, 0.00, 0.00, 0.00, 11:18:36.626
19, 13357.09, 0.00, 0.00, 0.00, -22499.89, 0.00, 0.00, 0.00, 0.00, 0.00, 0.00, 11:18:36.630
20, 11977.12, 0.00, 0.00, 0.00, -22930.18, 0.00, 0.00, 0.00, 0.00, 0.00, 0.00, 11:18:36.633
21, 12941.15, 0.00, 0.00, 0.00, -22612.37, 0.00, 0.00, 0.00, 0.00, 0.00, 0.00, 11:18:36.637
22, 14633.02, 0.00, 0.00, 0.00, -22066.51, 0.00, 0.00, 0.00, 0.00, 0.00, 0.00, 11:18:36.640
23, 13707.74, 0.00, 0.00, 0.00, -22384.22, 0.00, 0.00, 0.00, 0.00, 0.00, 0.00, 11:18:36.645
24, 12060.08, 0.00, 0.00, 0.00, -22909.44, 0.00, 0.00, 0.00, 0.00, 0.00, 0.00, 11:18:36.649
25, 12612.96, 0.00, 0.00, 0.00, -22720.48, 0.00, 0.00, 0.00, 0.00, 0.00, 0.00, 11:18:36.654
26, 14455.39, 0.00, 0.00, 0.00, -22111.84, 0.00, 0.00, 0.00, 0.02, -0.50, 0.87, 11:18:36.658
27, 14021.56, 0.00, 0.00, 0.00, -22274.41, 0.00, 0.00, 0.00, 0.00, 0.00, 0.00, 11:18:36.661
28, 12224.26, 0.00, 0.00, 0.00, -22868.18, 0.00, 0.00, 0.00, 0.00, 0.00, 0.00, 11:18:36.664
29, 12330.21, 0.00, 0.00, 0.00, -22820.93, 0.00, 0.00, 0.00, 0.00, 0.00, 0.00, 11:18:36.669
30, 14202.14, 0.00, 0.00, 0.00, -22211.62, 0.00, 0.00, 0.00, 0.00, 0.00, 0.00, 11:18:36.673
31, 14280.19, 0.00, 0.00, 0.00, -22180.24, 0.00, 0.00, 0.00, 0.00, 0.00, 0.00, 11:18:36.677
32, 12422.14, 0.00, 0.00, 0.00, -22781.54, 0.00, 0.00, 0.00, 0.00, 0.00, 0.00, 11:18:36.683
33, 12095.56, 0.00, 0.00, 0.00, -22865.61, 0.00, 0.00, 0.00, 0.00, 0.00, 0.00, 11:18:36.687
34, 13866.06, 0.00, 0.00, 0.00, -22290.50, 0.00, 0.00, 0.00, 0.00, 0.00, 0.00, 11:18:36.690
35, 14485.18, 0.00, 0.00, 0.00, -22093.00, 0.00, 0.00, 0.00, 0.02, -0.50, 0.87, 11:18:36.693
36, 12713.58, 0.00, 0.00, 0.00, -22689.46, 0.00, 0.00, 0.00, 0.00, 0.00, 0.00, 11:18:36.697
37, 11961.58, 0.00, 0.00, 0.00, -22937.18, 0.00, 0.00, 0.00, 0.00, 0.00, 0.00, 11:18:36.701
38, 13505.79, 0.00, 0.00, 0.00, -22416.52, 0.00, 0.00, 0.00, 0.00, 0.00, 0.00, 11:18:36.705
39, 14591.24, 0.00, 0.00, 0.00, -22067.07, 0.00, 0.00, 0.00, 0.00, 0.00, 0.00, 11:18:36.710
40, 13003.08, 0.00, 0.00, 0.00, -22576.71, 0.00, 0.00, 0.00, 0.00, 0.00, 0.00, 11:18:36.714
41, 11883.89, 0.00, 0.00, 0.00, -22919.57, 0.00, 0.00, 0.00, 0.00, 0.00, 0.00, 11:18:36.717
42, 13117.81, 0.00, 0.00, 0.00, -22475.19, 0.00, 0.00, 0.00, 0.00, 0.00, 0.00, 11:18:36.721
43, 14606.82, 0.00, 0.00, 0.00, -21995.37, 0.00, 0.00, 0.00, 0.00, 0.00, 0.00, 11:18:36.725
44, 13357.45, 0.00, 0.00, 0.00, -22408.90, 0.00, 0.00, 0.00, 0.00, 0.00, 0.00, 11:18:36.729
45, 11896.63, 0.00, 0.00, 0.00, -22879.04, 0.00, 0.00, 0.00, 0.02, -0.50, 0.88, 11:18:36.733
46, 12759.34, 0.00, 0.00, 0.00, -22586.28, 0.00, 0.00, 0.00, 0.00, 0.00, 0.00, 11:18:36.738
47, 14510.44, 0.00, 0.00, 0.00, -22042.93, 0.00, 0.00, 0.00, 0.00, 0.00, 0.00, 11:18:36.742
48, 13709.42, 0.00, 0.00, 0.00, -22338.47, 0.00, 0.00, 0.00, 0.00, 0.00, 0.00, 11:18:36.746
49, 12015.36, 0.00, 0.00, 0.00, -22865.74, 0.00, 0.00, 0.00, 0.00, 0.00, 0.00, 11:18:36.749
50, 12456.63, 0.00, 0.00, 0.00, -22691.74, 0.00, 0.00, 0.00, 0.00, 0.00, 0.00, 11:18:36.753
51, 14323.65, 0.00, 0.00, 0.00, -22082.23, 0.00, 0.00, 0.00, 0.00, 0.00, 0.00, 11:18:36.757
52, 14027.95, 0.00, 0.00, 0.00, -22213.99, 0.00, 0.00, 0.00, 0.00, 0.00, 0.00, 11:18:36.761
53, 12192.23, 0.00, 0.00, 0.00, -22823.43, 0.00, 0.00, 0.00, 0.00, 0.00, 0.00, 11:18:36.766
54, 12173.18, 0.00, 0.00, 0.00, -22800.61, 0.00, 0.00, 0.00, 0.00, 0.00, 0.00, 11:18:36.768
55, 14033.99, 0.00, 0.00, 0.00, -22178.70, 0.00, 0.00, 0.00, 0.02, -0.51, 0.87, 11:18:36.772
56, 14258.49, 0.00, 0.00, 0.00, -22104.78, 0.00, 0.00, 0.00, 0.00, 0.00, 0.00, 11:18:36.777
57, 12412.44, 0.00, 0.00, 0.00, -22698.20, 0.00, 0.00, 0.00, 0.00, 0.00, 0.00, 11:18:36.781
58, 11974.59, 0.00, 0.00, 0.00, -22829.13, 0.00, 0.00, 0.00, 0.00, 0.00, 0.00, 11:18:36.786
59, 13695.72, 0.00, 0.00, 0.00, -22258.04, 0.00, 0.00, 0.00, 0.00, 0.00, 0.00, 11:18:36.789
60, 14434.40, 0.00, 0.00, 0.00, -22037.88, 0.00, 0.00, 0.00, 0.00, 0.00, 0.00, 11:18:36.794
61, 12687.77, 0.00, 0.00, 0.00, -22616.70, 0.00, 0.00, 0.00, 0.00, 0.00, 0.00, 11:18:36.798
62, 11841.46, 0.00, 0.00, 0.00, -22882.96, 0.00, 0.00, 0.00, 0.00, 0.00, 0.00, 11:18:36.801
63, 13322.18, 0.00, 0.00, 0.00, -22385.03, 0.00, 0.00, 0.00, 0.00, 0.00, 0.00, 11:18:36.805
64, 14527.49, 0.00, 0.00, 0.00, -21986.05, 0.00, 0.00, 0.00, 0.00, 0.00, 0.00, 11:18:36.809
65, 13031.09, 0.00, 0.00, 0.00, -22473.81, 0.00, 0.00, 0.00, 0.02, -0.51, 0.87, 11:18:36.813
66, 11791.30, 0.00, 0.00, 0.00, -22871.06, 0.00, 0.00, 0.00, 0.00, 0.00, 0.00, 11:18:36.818
67, 12920.87, 0.00, 0.00, 0.00, -22474.19, 0.00, 0.00, 0.00, 0.00, 0.00, 0.00, 11:18:36.823
68, 14496.47, 0.00, 0.00, 0.00, -21951.00, 0.00, 0.00, 0.00, 0.00, 0.00, 0.00, 11:18:36.826
69, 13355.37, 0.00, 0.00, 0.00, -22328.21, 0.00, 0.00, 0.00, 0.00, 0.00, 0.00, 11:18:36.831
70, 11832.25, 0.00, 0.00, 0.00, -22819.83, 0.00, 0.00, 0.00, 0.00, 0.00, 0.00, 11:18:36.833
71, 12593.26, 0.00, 0.00, 0.00, -22566.37, 0.00, 0.00, 0.00, 0.00, 0.00, 0.00, 11:18:36.837
72, 14396.38, 0.00, 0.00, 0.00, -21977.06, 0.00, 0.00, 0.00, 0.00, 0.00, 0.00, 11:18:36.841
73, 13707.41, 0.00, 0.00, 0.00, -22213.01, 0.00, 0.00, 0.00, 0.00, 0.00, 0.00, 11:18:36.845
74, 11944.39, 0.00, 0.00, 0.00, -22785.77, 0.00, 0.00, 0.00, 0.01, -0.50, 0.87, 11:18:36.850
75, 12276.00, 0.00, 0.00, 0.00, -22652.24, 0.00, 0.00, 0.00, 0.00, 0.00, 0.00, 11:18:36.853
76, 14171.54, 0.00, 0.00, 0.00, -22025.54, 0.00, 0.00, 0.00, 0.00, 0.00, 0.00, 11:18:36.856
77, 14003.75, 0.00, 0.00, 0.00, -22085.69, 0.00, 0.00, 0.00, 0.00, 0.00, 0.00, 11:18:36.863
78, 12149.69, 0.00, 0.00, 0.00, -22699.54, 0.00, 0.00, 0.00, 0.00, 0.00, 0.00, 11:18:36.865
79, 12032.17, 0.00, 0.00, 0.00, -22728.24, 0.00, 0.00, 0.00, 0.00, 0.00, 0.00, 11:18:36.869
80, 13890.00, 0.00, 0.00, 0.00, -22120.98, 0.00, 0.00, 0.00, 0.00, 0.00, 0.00, 11:18:36.873
81, 14255.94, 0.00, 0.00, 0.00, -22009.70, 0.00, 0.00, 0.00, 0.00, 0.00, 0.00, 11:18:36.877
82, 12411.01, 0.00, 0.00, 0.00, -22615.00, 0.00, 0.00, 0.00, 0.00, 0.00, 0.00, 11:18:36.880
83, 11865.11, 0.00, 0.00, 0.00, -22778.08, 0.00, 0.00, 0.00, 0.00, 0.00, 0.00, 11:18:36.886
84, 13558.70, 0.00, 0.00, 0.00, -22227.67, 0.00, 0.00, 0.00, 0.02, -0.49, 0.87, 11:18:36.890
85, 14424.21, 0.00, 0.00, 0.00, -21949.03, 0.00, 0.00, 0.00, 0.00, 0.00, 0.00, 11:18:36.893
86, 12728.80, 0.00, 0.00, 0.00, -22531.65, 0.00, 0.00, 0.00, 0.00, 0.00, 0.00, 11:18:36.898
87, 11771.66, 0.00, 0.00, 0.00, -22848.11, 0.00, 0.00, 0.00, 0.00, 0.00, 0.00, 11:18:36.901
88, 13168.26, 0.00, 0.00, 0.00, -22347.07, 0.00, 0.00, 0.00, 0.00, 0.00, 0.00, 11:18:36.904
89, 14495.87, 0.00, 0.00, 0.00, -21919.06, 0.00, 0.00, 0.00, 0.00, 0.00, 0.00, 11:18:36.908
90, 13070.16, 0.00, 0.00, 0.00, -22401.74, 0.00, 0.00, 0.00, 0.00, 0.00, 0.00, 11:18:36.913
91, 11756.93, 0.00, 0.00, 0.00, -22815.65, 0.00, 0.00, 0.00, 0.00, 0.00, 0.00, 11:18:36.916
92, 12821.34, 0.00, 0.00, 0.00, -22460.33, 0.00, 0.00, 0.00, 0.00, 0.00, 0.00, 11:18:36.921
93, 14467.01, 0.00, 0.00, 0.00, -21928.11, 0.00, 0.00, 0.00, 0.00, 0.00, 0.00, 11:18:36.925
94, 13426.67, 0.00, 0.00, 0.00, -22264.28, 0.00, 0.00, 0.00, 0.02, -0.50, 0.88, 11:18:36.929
95, 11835.16, 0.00, 0.00, 0.00, -22792.23, 0.00, 0.00, 0.00, 0.00, 0.00, 0.00, 11:18:36.932
96, 12485.62, 0.00, 0.00, 0.00, -22562.54, 0.00, 0.00, 0.00, 0.00, 0.00, 0.00, 11:18:36.936
97, 14334.55, 0.00, 0.00, 0.00, -21967.14, 0.00, 0.00, 0.00, 0.00, 0.00, 0.00, 11:18:36.941
98, 13791.54, 0.00, 0.00, 0.00, -22163.34, 0.00, 0.00, 0.00, 0.00, 0.00, 0.00, 11:18:36.944
99, 11984.58, 0.00, 0.00, 0.00, -22738.92, 0.00, 0.00, 0.00, 0.00, 0.00, 0.00, 11:18:36.949
100, 12190.57, 0.00, 0.00, 0.00, -22648.60, 0.00, 0.00, 0.00, 0.00, 0.00, 0.00, 11:18:36.953
101, 14091.88, 0.00, 0.00, 0.00, -22006.50, 0.00, 0.00, 0.00, 0.00, 0.00, 0.00, 11:18:36.958
102, 14086.56, 0.00, 0.00, 0.00, -22026.10, 0.00, 0.00, 0.00, 0.00, 0.00, 0.00, 11:18:36.960
103, 12226.16, 0.00, 0.00, 0.00, -22651.23, 0.00, 0.00, 0.00, 0.00, 0.00, 0.00, 11:18:36.965
104, 11983.28, 0.00, 0.00, 0.00, -22705.50, 0.00, 0.00, 0.00, 0.02, -0.50, 0.87, 11:18:36.968
105, 13803.12, 0.00, 0.00, 0.00, -22091.99, 0.00, 0.00, 0.00, 0.00, 0.00, 0.00, 11:18:36.972
106, 14319.71, 0.00, 0.00, 0.00, -21941.50, 0.00, 0.00, 0.00, 0.00, 0.00, 0.00, 11:18:36.977
107, 12494.65, 0.00, 0.00, 0.00, -22545.35, 0.00, 0.00, 0.00, 0.00, 0.00, 0.00, 11:18:36.981
108, 11847.39, 0.00, 0.00, 0.00, -22753.23, 0.00, 0.00, 0.00, 0.00, 0.00, 0.00, 11:18:36.984
109, 13464.87, 0.00, 0.00, 0.00, -22207.96, 0.00, 0.00, 0.00, 0.00, 0.00, 0.00, 11:18:36.988
110, 14472.78, 0.00, 0.00, 0.00, -21882.45, 0.00, 0.00, 0.00, 0.00, 0.00, 0.00, 11:18:36.992
111, 12842.75, 0.00, 0.00, 0.00, -22421.82, 0.00, 0.00, 0.00, 0.00, 0.00, 0.00, 11:18:36.996
112, 11770.14, 0.00, 0.00, 0.00, -22767.04, 0.00, 0.00, 0.00, 0.00, 0.00, 0.00, 11:18:37.001
113, 13104.74, 0.00, 0.00, 0.00, -22311.82, 0.00, 0.00, 0.00, 0.00, 0.00, 0.00, 11:18:37.004
114, 14526.82, 0.00, 0.00, 0.00, -21848.18, 0.00, 0.00, 0.00, 0.01, -0.50, 0.88, 11:18:37.009
115, 13194.88, 0.00, 0.00, 0.00, -22288.78, 0.00, 0.00, 0.00, 0.00, 0.00, 0.00, 11:18:37.013
116, 11789.49, 0.00, 0.00, 0.00, -22710.78, 0.00, 0.00, 0.00, 0.00, 0.00, 0.00, 11:18:37.016
117, 12737.99, 0.00, 0.00, 0.00, -22406.88, 0.00, 0.00, 0.00, 0.00, 0.00, 0.00, 11:18:37.021
118, 14459.32, 0.00, 0.00, 0.00, -21842.93, 0.00, 0.00, 0.00, 0.00, 0.00, 0.00, 11:18:37.024
119, 13557.79, 0.00, 0.00, 0.00, -22137.48, 0.00, 0.00, 0.00, 0.00, 0.00, 0.00, 11:18:37.028
120, 11892.89, 0.00, 0.00, 0.00, -22687.51, 0.00, 0.00, 0.00, 0.00, 0.00, 0.00, 11:18:37.034
121, 12431.73, 0.00, 0.00, 0.00, -22502.48, 0.00, 0.00, 0.00, 0.00, 0.00, 0.00, 11:18:37.038
122, 14316.16, 0.00, 0.00, 0.00, -21863.85, 0.00, 0.00, 0.00, 0.00, 0.00, 0.00, 11:18:37.042
123, 13910.74, 0.00, 0.00, 0.00, -22040.99, 0.00, 0.00, 0.00, 0.01, -0.50, 0.88, 11:18:37.045
124, 12076.92, 0.00, 0.00, 0.00, -22633.17, 0.00, 0.00, 0.00, 0.00, 0.00, 0.00, 11:18:37.049
125, 12162.97, 0.00, 0.00, 0.00, -22578.84, 0.00, 0.00, 0.00, 0.00, 0.00, 0.00, 11:18:37.052
126, 14054.87, 0.00, 0.00, 0.00, -21956.97, 0.00, 0.00, 0.00, 0.00, 0.00, 0.00, 11:18:37.057
127, 14184.48, 0.00, 0.00, 0.00, -21946.48, 0.00, 0.00, 0.00, 0.00, 0.00, 0.00, 11:18:37.060
128, 12344.49, 0.00, 0.00, 0.00, -22550.92, 0.00, 0.00, 0.00, 0.00, 0.00, 0.00, 11:18:37.065
129, 11989.23, 0.00, 0.00, 0.00, -22631.30, 0.00, 0.00, 0.00, 0.00, 0.00, 0.00, 11:18:37.068
130, 13746.61, 0.00, 0.00, 0.00, -22053.48, 0.00, 0.00, 0.00, 0.00, 0.00, 0.00, 11:18:37.072
131, 14410.93, 0.00, 0.00, 0.00, -21842.75, 0.00, 0.00, 0.00, 0.00, 0.00, 0.00, 11:18:37.077
132, 12637.12, 0.00, 0.00, 0.00, -22442.54, 0.00, 0.00, 0.00, 0.00, 0.00, 0.00, 11:18:37.083
133, 11849.96, 0.00, 0.00, 0.00, -22668.07, 0.00, 0.00, 0.00, 0.01, -0.50, 0.88, 11:18:37.085
134, 13396.99, 0.00, 0.00, 0.00, -22152.30, 0.00, 0.00, 0.00, 0.00, 0.00, 0.00, 11:18:37.088
135, 14530.53, 0.00, 0.00, 0.00, -21806.03, 0.00, 0.00, 0.00, 0.00, 0.00, 0.00, 11:18:37.093
136, 12972.95, 0.00, 0.00, 0.00, -22343.67, 0.00, 0.00, 0.00, 0.00, 0.00, 0.00, 11:18:37.098
137, 11822.80, 0.00, 0.00, 0.00, -22704.05, 0.00, 0.00, 0.00, 0.00, 0.00, 0.00, 11:18:37.101
138, 13059.36, 0.00, 0.00, 0.00, -22272.28, 0.00, 0.00, 0.00, 0.00, 0.00, 0.00, 11:18:37.104
139, 14550.40, 0.00, 0.00, 0.00, -21784.28, 0.00, 0.00, 0.00, 0.00, 0.00, 0.00, 11:18:37.108
140, 13315.74, 0.00, 0.00, 0.00, -22192.93, 0.00, 0.00, 0.00, 0.00, 0.00, 0.00, 11:18:37.113
141, 11862.38, 0.00, 0.00, 0.00, -22671.48, 0.00, 0.00, 0.00, 0.00, 0.00, 0.00, 11:18:37.119
142, 12708.62, 0.00, 0.00, 0.00, -22365.27, 0.00, 0.00, 0.00, 0.00, 0.00, 0.00, 11:18:37.121
143, 14478.70, 0.00, 0.00, 0.00, -21766.13, 0.00, 0.00, 0.00, 0.01, -0.50, 0.88, 11:18:37.126
144, 13706.96, 0.00, 0.00, 0.00, -22014.70, 0.00, 0.00, 0.00, 0.00, 0.00, 0.00, 11:18:37.128
145, 12006.66, 0.00, 0.00, 0.00, -22561.67, 0.00, 0.00, 0.00, 0.00, 0.00, 0.00, 11:18:37.133
146, 12423.12, 0.00, 0.00, 0.00, -22399.62, 0.00, 0.00, 0.00, 0.00, 0.00, 0.00, 11:18:37.138
147, 14319.53, 0.00, 0.00, 0.00, -21787.36, 0.00, 0.00, 0.00, 0.00, 0.00, 0.00, 11:18:37.140
148, 14063.18, 0.00, 0.00, 0.00, -21894.45, 0.00, 0.00, 0.00, 0.00, 0.00, 0.00, 11:18:37.145
149, 12237.78, 0.00, 0.00, 0.00, -22499.76, 0.00, 0.00, 0.00, 0.00, 0.00, 0.00, 11:18:37.148
150, 12214.42, 0.00, 0.00, 0.00, -22505.43, 0.00, 0.00, 0.00, 0.00, 0.00, 0.00, 11:18:37.152
151, 14087.99, 0.00, 0.00, 0.00, -21921.90, 0.00, 0.00, 0.00, 0.00, 0.00, 0.00, 11:18:37.157
152, 14366.32, 0.00, 0.00, 0.00, -21840.74, 0.00, 0.00, 0.00, 0.00, 0.00, 0.00, 11:18:37.160
153, 12509.51, 0.00, 0.00, 0.00, -22433.10, 0.00, 0.00, 0.00, 0.02, -0.50, 0.88, 11:18:37.165
154, 12042.69, 0.00, 0.00, 0.00, -22570.95, 0.00, 0.00, 0.00, 0.00, 0.00, 0.00, 11:18:37.168
155, 13758.24, 0.00, 0.00, 0.00, -21984.46, 0.00, 0.00, 0.00, 0.00, 0.00, 0.00, 11:18:37.174
156, 14541.91, 0.00, 0.00, 0.00, -21733.47, 0.00, 0.00, 0.00, 0.00, 0.00, 0.00, 11:18:37.176
157, 12815.46, 0.00, 0.00, 0.00, -22314.24, 0.00, 0.00, 0.00, 0.00, 0.00, 0.00, 11:18:37.180
158, 11927.92, 0.00, 0.00, 0.00, -22591.06, 0.00, 0.00, 0.00, 0.00, 0.00, 0.00, 11:18:37.184
159, 13401.10, 0.00, 0.00, 0.00, -22089.92, 0.00, 0.00, 0.00, 0.00, 0.00, 0.00, 11:18:37.189
160, 14658.90, 0.00, 0.00, 0.00, -21688.61, 0.00, 0.00, 0.00, 0.00, 0.00, 0.00, 11:18:37.192
161, 13175.82, 0.00, 0.00, 0.00, -22181.24, 0.00, 0.00, 0.00, 0.00, 0.00, 0.00, 11:18:37.197
162, 11939.81, 0.00, 0.00, 0.00, -22582.55, 0.00, 0.00, 0.00, 0.00, 0.00, 0.00, 11:18:37.201
163, 13051.67, 0.00, 0.00, 0.00, -22198.37, 0.00, 0.00, 0.00, 0.01, -0.49, 0.88, 11:18:37.205
164, 14637.75, 0.00, 0.00, 0.00, -21688.72, 0.00, 0.00, 0.00, 0.00, 0.00, 0.00, 11:18:37.207
165, 13519.99, 0.00, 0.00, 0.00, -22066.80, 0.00, 0.00, 0.00, 0.00, 0.00, 0.00, 11:18:37.212
166, 11992.38, 0.00, 0.00, 0.00, -22568.18, 0.00, 0.00, 0.00, 0.00, 0.00, 0.00, 11:18:37.217
167, 12737.97, 0.00, 0.00, 0.00, -22298.12, 0.00, 0.00, 0.00, 0.00, 0.00, 0.00, 11:18:37.221
168, 14547.16, 0.00, 0.00, 0.00, -21703.25, 0.00, 0.00, 0.00, 0.00, 0.00, 0.00, 11:18:37.224
169, 13886.56, 0.00, 0.00, 0.00, -21928.38, 0.00, 0.00, 0.00, 0.00, 0.00, 0.00, 11:18:37.228
170, 12127.47, 0.00, 0.00, 0.00, -22490.41, 0.00, 0.00, 0.00, 0.00, 0.00, 0.00, 11:18:37.231
171, 12419.99, 0.00, 0.00, 0.00, -22366.50, 0.00, 0.00, 0.00, 0.00, 0.00, 0.00, 11:18:37.236
172, 14321.57, 0.00, 0.00, 0.00, -21739.11, 0.00, 0.00, 0.00, 0.01, -0.50, 0.87, 11:18:37.239
173, 14194.90, 0.00, 0.00, 0.00, -21807.70, 0.00, 0.00, 0.00, 0.00, 0.00, 0.00, 11:18:37.245
174, 12344.69, 0.00, 0.00, 0.00, -22412.45, 0.00, 0.00, 0.00, 0.00, 0.00, 0.00, 11:18:37.248
175, 12199.54, 0.00, 0.00, 0.00, -22446.40, 0.00, 0.00, 0.00, 0.00, 0.00, 0.00, 11:18:37.253
176, 14023.62, 0.00, 0.00, 0.00, -21841.99, 0.00, 0.00, 0.00, 0.00, 0.00, 0.00, 11:18:37.255
177, 14434.44, 0.00, 0.00, 0.00, -21710.94, 0.00, 0.00, 0.00, 0.00, 0.00, 0.00, 11:18:37.260
178, 12598.74, 0.00, 0.00, 0.00, -22315.02, 0.00, 0.00, 0.00, 0.00, 0.00, 0.00, 11:18:37.263
179, 12016.34, 0.00, 0.00, 0.00, -22501.03, 0.00, 0.00, 0.00, 0.00, 0.00, 0.00, 11:18:37.268
180, 13675.83, 0.00, 0.00, 0.00, -21947.27, 0.00, 0.00, 0.00, 0.00, 0.00, 0.00, 11:18:37.273
181, 14590.30, 0.00, 0.00, 0.00, -21628.13, 0.00, 0.00, 0.00, 0.00, 0.00, 0.00, 11:18:37.276
182, 12898.88, 0.00, 0.00, 0.00, -22180.78, 0.00, 0.00, 0.00, 0.01, -0.49, 0.88, 11:18:37.281
183, 11917.88, 0.00, 0.00, 0.00, -22489.59, 0.00, 0.00, 0.00, 0.00, 0.00, 0.00, 11:18:37.283
184, 13309.99, 0.00, 0.00, 0.00, -22030.33, 0.00, 0.00, 0.00, 0.00, 0.00, 0.00, 11:18:37.288
185, 14653.09, 0.00, 0.00, 0.00, -21562.95, 0.00, 0.00, 0.00, 0.00, 0.00, 0.00, 11:18:37.291
186, 13255.46, 0.00, 0.00, 0.00, -22045.90, 0.00, 0.00, 0.00, 0.00, 0.00, 0.00, 11:18:37.296
187, 11919.74, 0.00, 0.00, 0.00, -22495.29, 0.00, 0.00, 0.00, 0.00, 0.00, 0.00, 11:18:37.300
188, 12962.16, 0.00, 0.00, 0.00, -22144.74, 0.00, 0.00, 0.00, 0.00, 0.00, 0.00, 11:18:37.305
189, 14619.56, 0.00, 0.00, 0.00, -21596.50, 0.00, 0.00, 0.00, 0.00, 0.00, 0.00, 11:18:37.309
190, 13604.34, 0.00, 0.00, 0.00, -21930.90, 0.00, 0.00, 0.00, 0.00, 0.00, 0.00, 11:18:37.312
191, 11999.02, 0.00, 0.00, 0.00, -22450.22, 0.00, 0.00, 0.00, 0.00, 0.00, 0.00, 11:18:37.316
192, 12621.87, 0.00, 0.00, 0.00, -22216.43, 0.00, 0.00, 0.00, 0.01, -0.51, 0.88, 11:18:37.320
193, 14473.00, 0.00, 0.00, 0.00, -21623.68, 0.00, 0.00, 0.00, 0.00, 0.00, 0.00, 11:18:37.324
194, 13943.64, 0.00, 0.00, 0.00, -21780.23, 0.00, 0.00, 0.00, 0.00, 0.00, 0.00, 11:18:37.328
195, 12155.53, 0.00, 0.00, 0.00, -22370.79, 0.00, 0.00, 0.00, 0.00, 0.00, 0.00, 11:18:37.333
196, 12350.61, 0.00, 0.00, 0.00, -22324.56, 0.00, 0.00, 0.00, 0.00, 0.00, 0.00, 11:18:37.337
197, 14244.57, 0.00, 0.00, 0.00, -21707.70, 0.00, 0.00, 0.00, 0.00, 0.00, 0.00, 11:18:37.340
198, 14242.64, 0.00, 0.00, 0.00, -21705.91, 0.00, 0.00, 0.00, 0.00, 0.00, 0.00, 11:18:37.344
199, 12387.45, 0.00, 0.00, 0.00, -22309.99, 0.00, 0.00, 0.00, 0.00, 0.00, 0.00, 11:18:37.348
200, 12132.42, 0.00, 0.00, 0.00, -22379.10, 0.00, 0.00, 0.00, 0.00, 0.00, 0.00, 11:18:37.352
201, 13945.45, 0.00, 0.00, 0.00, -21810.76, 0.00, 0.00, 0.00, 0.00, 0.00, 0.00, 11:18:37.356
202, 14477.81, 0.00, 0.00, 0.00, -21636.64, 0.00, 0.00, 0.00, 0.01, -0.51, 0.88, 11:18:37.361
203, 12685.40, 0.00, 0.00, 0.00, -22242.06, 0.00, 0.00, 0.00, 0.00, 0.00, 0.00, 11:18:37.364
204, 12000.47, 0.00, 0.00, 0.00, -22456.62, 0.00, 0.00, 0.00, 0.00, 0.00, 0.00, 11:18:37.368
205, 13601.21, 0.00, 0.00, 0.00, -21931.98, 0.00, 0.00, 0.00, 0.00, 0.00, 0.00, 11:18:37.372
206, 14631.14, 0.00, 0.00, 0.00, -21593.73, 0.00, 0.00, 0.00, 0.00, 0.00, 0.00, 11:18:37.376
207, 13006.30, 0.00, 0.00, 0.00, -22130.71, 0.00, 0.00, 0.00, 0.00, 0.00, 0.00, 11:18:37.380
208, 11932.68, 0.00, 0.00, 0.00, -22482.14, 0.00, 0.00, 0.00, 0.00, 0.00, 0.00, 11:18:37.384
209, 13232.81, 0.00, 0.00, 0.00, -22049.03, 0.00, 0.00, 0.00, 0.00, 0.00, 0.00, 11:18:37.389
210, 14667.64, 0.00, 0.00, 0.00, -21575.22, 0.00, 0.00, 0.00, 0.00, 0.00, 0.00, 11:18:37.392
211, 13352.75, 0.00, 0.00, 0.00, -22038.35, 0.00, 0.00, 0.00, 0.01, -0.50, 0.88, 11:18:37.394
212, 11933.13, 0.00, 0.00, 0.00, -22487.73, 0.00, 0.00, 0.00, 0.00, 0.00, 0.00, 11:18:37.400
213, 12858.04, 0.00, 0.00, 0.00, -22152.19, 0.00, 0.00, 0.00, 0.00, 0.00, 0.00, 11:18:37.404
214, 14564.55, 0.00, 0.00, 0.00, -21596.23, 0.00, 0.00, 0.00, 0.00, 0.00, 0.00, 11:18:37.408
215, 13666.75, 0.00, 0.00, 0.00, -21898.07, 0.00, 0.00, 0.00, 0.00, 0.00, 0.00, 11:18:37.412
216, 12015.47, 0.00, 0.00, 0.00, -22450.18, 0.00, 0.00, 0.00, 0.00, 0.00, 0.00, 11:18:37.417
217, 12518.90, 0.00, 0.00, 0.00, -22274.94, 0.00, 0.00, 0.00, 0.00, 0.00, 0.00, 11:18:37.419
218, 14371.90, 0.00, 0.00, 0.00, -21668.41, 0.00, 0.00, 0.00, 0.00, 0.00, 0.00, 11:18:37.424
219, 13975.27, 0.00, 0.00, 0.00, -21819.30, 0.00, 0.00, 0.00, 0.00, 0.00, 0.00, 11:18:37.428
220, 12159.57, 0.00, 0.00, 0.00, -22414.71, 0.00, 0.00, 0.00, 0.00, 0.00, 0.00, 11:18:37.432
221, 12229.15, 0.00, 0.00, 0.00, -22397.47, 0.00, 0.00, 0.00, 0.02, -0.50, 0.88, 11:18:37.436
222, 14094.07, 0.00, 0.00, 0.00, -21799.86, 0.00, 0.00, 0.00, 0.00, 0.00, 0.00, 11:18:37.440
223, 14257.80, 0.00, 0.00, 0.00, -21775.56, 0.00, 0.00, 0.00, 0.00, 0.00, 0.00, 11:18:37.445
224, 12401.31, 0.00, 0.00, 0.00, -22393.43, 0.00, 0.00, 0.00, 0.00, 0.00, 0.00, 11:18:37.448
225, 12036.15, 0.00, 0.00, 0.00, -22503.67, 0.00, 0.00, 0.00, 0.00, 0.00, 0.00, 11:18:37.450
226, 13793.55, 0.00, 0.00, 0.00, -21914.59, 0.00, 0.00, 0.00, 0.00, 0.00, 0.00, 11:18:37.456
227, 14465.91, 0.00, 0.00, 0.00, -21695.83, 0.00, 0.00, 0.00, 0.00, 0.00, 0.00, 11:18:37.460
228, 12703.41, 0.00, 0.00, 0.00, -22267.50, 0.00, 0.00, 0.00, 0.00, 0.00, 0.00, 11:18:37.463
229, 11911.24, 0.00, 0.00, 0.00, -22521.04, 0.00, 0.00, 0.00, 0.00, 0.00, 0.00, 11:18:37.468
230, 13432.75, 0.00, 0.00, 0.00, -22014.46, 0.00, 0.00, 0.00, 0.00, 0.00, 0.00, 11:18:37.472
231, 14578.34, 0.00, 0.00, 0.00, -21632.06, 0.00, 0.00, 0.00, 0.02, -0.50, 0.88, 11:18:37.475
232, 13019.71, 0.00, 0.00, 0.00, -22144.52, 0.00, 0.00, 0.00, 0.00, 0.00, 0.00, 11:18:37.479
233, 11853.35, 0.00, 0.00, 0.00, -22527.36, 0.00, 0.00, 0.00, 0.00, 0.00, 0.00, 11:18:37.484
234, 13057.46, 0.00, 0.00, 0.00, -22126.35, 0.00, 0.00, 0.00, 0.00, 0.00, 0.00, 11:18:37.487
235, 14575.33, 0.00, 0.00, 0.00, -21646.19, 0.00, 0.00, 0.00, 0.00, 0.00, 0.00, 11:18:37.492
236, 13363.06, 0.00, 0.00, 0.00, -22037.17, 0.00, 0.00, 0.00, 0.00, 0.00, 0.00, 11:18:37.495
237, 11889.03, 0.00, 0.00, 0.00, -22495.38, 0.00, 0.00, 0.00, 0.00, 0.00, 0.00, 11:18:37.500
238, 12709.78, 0.00, 0.00, 0.00, -22218.30, 0.00, 0.00, 0.00, 0.00, 0.00, 0.00, 11:18:37.503
239, 14474.83, 0.00, 0.00, 0.00, -21647.69, 0.00, 0.00, 0.00, 0.00, 0.00, 0.00, 11:18:37.507
240, 13714.81, 0.00, 0.00, 0.00, -21897.87, 0.00, 0.00, 0.00, 0.00, 0.00, 0.00, 11:18:37.512
241, 11991.67, 0.00, 0.00, 0.00, -22419.18, 0.00, 0.00, 0.00, 0.01, -0.50, 0.88, 11:18:37.516
242, 12388.01, 0.00, 0.00, 0.00, -22265.60, 0.00, 0.00, 0.00, 0.00, 0.00, 0.00, 11:18:37.520
243, 14279.88, 0.00, 0.00, 0.00, -21667.13, 0.00, 0.00, 0.00, 0.00, 0.00, 0.00, 11:18:37.523
244, 14030.48, 0.00, 0.00, 0.00, -21770.91, 0.00, 0.00, 0.00, 0.00, 0.00, 0.00, 11:18:37.528
245, 12185.48, 0.00, 0.00, 0.00, -22373.18, 0.00, 0.00, 0.00, 0.00, 0.00, 0.00, 11:18:37.531
246, 12145.07, 0.00, 0.00, 0.00, -22363.86, 0.00, 0.00, 0.00, 0.00, 0.00, 0.00, 11:18:37.534
247, 13993.87, 0.00, 0.00, 0.00, -21748.67, 0.00, 0.00, 0.00, 0.00, 0.00, 0.00, 11:18:37.540
248, 14279.59, 0.00, 0.00, 0.00, -21662.42, 0.00, 0.00, 0.00, 0.00, 0.00, 0.00, 11:18:37.544
249, 12446.79, 0.00, 0.00, 0.00, -22263.86, 0.00, 0.00, 0.00, 0.00, 0.00, 0.00, 11:18:37.548
250, 11967.75, 0.00, 0.00, 0.00, -22390.03, 0.00, 0.00, 0.00, 0.00, 0.00, 0.00, 11:18:37.552
251, 13665.86, 0.00, 0.00, 0.00, -21813.27, 0.00, 0.00, 0.00, 0.02, -0.50, 0.88, 11:18:37.556
252, 14463.63, 0.00, 0.00, 0.00, -21569.03, 0.00, 0.00, 0.00, 0.00, 0.00, 0.00, 11:18:37.559
253, 12753.26, 0.00, 0.00, 0.00, -22146.91, 0.00, 0.00, 0.00, 0.00, 0.00, 0.00, 11:18:37.564
254, 11871.61, 0.00, 0.00, 0.00, -22447.79, 0.00, 0.00, 0.00, 0.00, 0.00, 0.00, 11:18:37.567
255, 13317.88, 0.00, 0.00, 0.00, -21958.33, 0.00, 0.00, 0.00, 0.00, 0.00, 0.00, 11:18:37.572
0, 14572.87, 0.00, 0.00, 0.00, -21576.00, 0.00, 0.00, 0.00, 0.00, 0.00, 0.00, 11:18:37.575
1, 13115.94, 0.00, 0.00, 0.00, -22075.01, 0.00, 0.00, 0.00, 0.00, 0.00, 0.00, 11:18:37.579
2, 11865.49, 0.00, 0.00, 0.00, -22468.35, 0.00, 0.00, 0.00, 0.00, 0.00, 0.00, 11:18:37.584
3, 12957.82, 0.00, 0.00, 0.00, -22075.01, 0.00, 0.00, 0.00, 0.00, 0.00, 0.00, 11:18:37.588
4, 14540.32, 0.00, 0.00, 0.00, -21560.92, 0.00, 0.00, 0.00, 0.01, -0.49, 0.87, 11:18:37.592
5, 13449.94, 0.00, 0.00, 0.00, -21948.32, 0.00, 0.00, 0.00, 0.00, 0.00, 0.00, 11:18:37.595
6, 11920.59, 0.00, 0.00, 0.00, -22454.76, 0.00, 0.00, 0.00, 0.00, 0.00, 0.00, 11:18:37.600
7, 12637.09, 0.00, 0.00, 0.00, -22188.24, 0.00, 0.00, 0.00, 0.00, 0.00, 0.00, 11:18:37.603
8, 14414.44, 0.00, 0.00, 0.00, -21604.84, 0.00, 0.00, 0.00, 0.00, 0.00, 0.00, 11:18:37.607
9, 13785.35, 0.00, 0.00, 0.00, -21839.31, 0.00, 0.00, 0.00, 0.00, 0.00, 0.00, 11:18:37.613
10, 12046.20, 0.00, 0.00, 0.00, -22430.06, 0.00, 0.00, 0.00, 0.00, 0.00, 0.00, 11:18:37.616
11, 12341.16, 0.00, 0.00, 0.00, -22325.82, 0.00, 0.00, 0.00, 0.00, 0.00, 0.00, 11:18:37.620
12, 14235.22, 0.00, 0.00, 0.00, -21714.94, 0.00, 0.00, 0.00, 0.00, 0.00, 0.00, 11:18:37.623
13, 14093.18, 0.00, 0.00, 0.00, -21750.77, 0.00, 0.00, 0.00, 0.00, 0.00, 0.00, 11:18:37.627
14, 12251.35, 0.00, 0.00, 0.00, -22321.59, 0.00, 0.00, 0.00, 0.02, -0.50, 0.88, 11:18:37.631
15, 12105.88, 0.00, 0.00, 0.00, -22374.03, 0.00, 0.00, 0.00, 0.00, 0.00, 0.00, 11:18:37.635
16, 13917.80, 0.00, 0.00, 0.00, -21787.43, 0.00, 0.00, 0.00, 0.00, 0.00, 0.00, 11:18:37.641
17, 14335.67, 0.00, 0.00, 0.00, -21657.99, 0.00, 0.00, 0.00, 0.00, 0.00, 0.00, 11:18:37.644
18, 12540.76, 0.00, 0.00, 0.00, -22255.32, 0.00, 0.00, 0.00, 0.00, 0.00, 0.00, 11:18:37.648
19, 11955.59, 0.00, 0.00, 0.00, -22421.64, 0.00, 0.00, 0.00, 0.00, 0.00, 0.00, 11:18:37.652
20, 13592.23, 0.00, 0.00, 0.00, -21871.52, 0.00, 0.00, 0.00, 0.00, 0.00, 0.00, 11:18:37.655
21, 14510.84, 0.00, 0.00, 0.00, -21582.80, 0.00, 0.00, 0.00, 0.00, 0.00, 0.00, 11:18:37.659
22, 12855.78, 0.00, 0.00, 0.00, -22130.24, 0.00, 0.00, 0.00, 0.00, 0.00, 0.00, 11:18:37.663
23, 11859.68, 0.00, 0.00, 0.00, -22435.09, 0.00, 0.00, 0.00, 0.00, 0.00, 0.00, 11:18:37.668
24, 13221.41, 0.00, 0.00, 0.00, -21970.76, 0.00, 0.00, 0.00, 0.02, -0.50, 0.88, 11:18:37.673
25, 14560.46, 0.00, 0.00, 0.00, -21545.65, 0.00, 0.00, 0.00, 0.00, 0.00, 0.00, 11:18:37.675
26, 13194.73, 0.00, 0.00, 0.00, -22020.51, 0.00, 0.00, 0.00, 0.00, 0.00, 0.00, 11:18:37.680
27, 11872.37, 0.00, 0.00, 0.00, -22439.83, 0.00, 0.00, 0.00, 0.00, 0.00, 0.00, 11:18:37.683
28, 12889.18, 0.00, 0.00, 0.00, -22102.19, 0.00, 0.00, 0.00, 0.00, 0.00, 0.00, 11:18:37.688
29, 14530.06, 0.00, 0.00, 0.00, -21565.45, 0.00, 0.00, 0.00, 0.00, 0.00, 0.00, 11:18:37.691
30, 13552.22, 0.00, 0.00, 0.00, -21906.74, 0.00, 0.00, 0.00, 0.00, 0.00, 0.00, 11:18:37.696
31, 11963.48, 0.00, 0.00, 0.00, -22416.99, 0.00, 0.00, 0.00, 0.00, 0.00, 0.00, 11:18:37.700
32, 12574.51, 0.00, 0.00, 0.00, -22201.67, 0.00, 0.00, 0.00, 0.00, 0.00, 0.00, 11:18:37.704
33, 14388.55, 0.00, 0.00, 0.00, -21580.92, 0.00, 0.00, 0.00, 0.00, 0.00, 0.00, 11:18:37.707
34, 13889.87, 0.00, 0.00, 0.00, -21729.85, 0.00, 0.00, 0.00, 0.01, -0.51, 0.88, 11:18:37.711
35, 12138.52, 0.00, 0.00, 0.00, -22328.47, 0.00, 0.00, 0.00, 0.00, 0.00, 0.00, 11:18:37.716
36, 12298.42, 0.00, 0.00, 0.00, -22268.73, 0.00, 0.00, 0.00, 0.00, 0.00, 0.00, 11:18:37.719
37, 14160.57, 0.00, 0.00, 0.00, -21647.24, 0.00, 0.00, 0.00, 0.00, 0.00, 0.00, 11:18:37.723
38, 14203.55, 0.00, 0.00, 0.00, -21646.77, 0.00, 0.00, 0.00, 0.00, 0.00, 0.00, 11:18:37.728
39, 12380.99, 0.00, 0.00, 0.00, -22259.05, 0.00, 0.00, 0.00, 0.00, 0.00, 0.00, 11:18:37.731
40, 12101.48, 0.00, 0.00, 0.00, -22316.41, 0.00, 0.00, 0.00, 0.00, 0.00, 0.00, 11:18:37.735
41, 13862.57, 0.00, 0.00, 0.00, -21739.22, 0.00, 0.00, 0.00, 0.00, 0.00, 0.00, 11:18:37.740
42, 14433.06, 0.00, 0.00, 0.00, -21594.64, 0.00, 0.00, 0.00, 0.00, 0.00, 0.00, 11:18:37.743
43, 12673.59, 0.00, 0.00, 0.00, -22207.37, 0.00, 0.00, 0.00, 0.00, 0.00, 0.00, 11:18:37.748
44, 11979.48, 0.00, 0.00, 0.00, -22386.72, 0.00, 0.00, 0.00, 0.01, -0.49, 0.88, 11:18:37.751
45, 13527.66, 0.00, 0.00, 0.00, -21831.80, 0.00, 0.00, 0.00, 0.00, 0.00, 0.00, 11:18:37.756
46, 14574.43, 0.00, 0.00, 0.00, -21508.17, 0.00, 0.00, 0.00, 0.00, 0.00, 0.00, 11:18:37.759
47, 12994.01, 0.00, 0.00, 0.00, -22060.46, 0.00, 0.00, 0.00, 0.00, 0.00, 0.00, 11:18:37.763
48, 11921.55, 0.00, 0.00, 0.00, -22393.34, 0.00, 0.00, 0.00, 0.00, 0.00, 0.00, 11:18:37.768
49, 13199.82, 0.00, 0.00, 0.00, -21962.69, 0.00, 0.00, 0.00, 0.00, 0.00, 0.00, 11:18:37.771
50, 14621.24, 0.00, 0.00, 0.00, -21468.38, 0.00, 0.00, 0.00, 0.00, 0.00, 0.00, 11:18:37.775
51, 13338.92, 0.00, 0.00, 0.00, -21894.34, 0.00, 0.00, 0.00, 0.00, 0.00, 0.00, 11:18:37.781
52, 11936.37, 0.00, 0.00, 0.00, -22359.92, 0.00, 0.00, 0.00, 0.00, 0.00, 0.00, 11:18:37.783
53, 12843.76, 0.00, 0.00, 0.00, -22044.43, 0.00, 0.00, 0.00, 0.00, -0.50, 0.88, 11:18:37.787
54, 14556.91, 0.00, 0.00, 0.00, -21473.79, 0.00, 0.00, 0.00, 0.00, 0.00, 0.00, 11:18:37.791
55, 13703.29, 0.00, 0.00, 0.00, -21780.34, 0.00, 0.00, 0.00, 0.00, 0.00, 0.00, 11:18:37.795
56, 12057.71, 0.00, 0.00, 0.00, -22307.40, 0.00, 0.00, 0.00, 0.00, 0.00, 0.00, 11:18:37.800
57, 12549.43, 0.00, 0.00, 0.00, -22115.57, 0.00, 0.00, 0.00, 0.00, 0.00, 0.00, 11:18:37.804
58, 14403.11, 0.00, 0.00, 0.00, -21508.72, 0.00, 0.00, 0.00, 0.00, 0.00, 0.00, 11:18:37.807
59, 14049.95, 0.00, 0.00, 0.00, -21649.12, 0.00, 0.00, 0.00, 0.00, 0.00, 0.00, 11:18:37.811
60, 12236.93, 0.00, 0.00, 0.00, -22231.49, 0.00, 0.00, 0.00, 0.00, 0.00, 0.00, 11:18:37.814
61, 12285.37, 0.00, 0.00, 0.00, -22192.13, 0.00, 0.00, 0.00, 0.00, 0.00, 0.00, 11:18:37.819
62, 14154.51, 0.00, 0.00, 0.00, -21579.80, 0.00, 0.00, 0.00, 0.00, 0.00, 0.00, 11:18:37.823
63, 14335.96, 0.00, 0.00, 0.00, -21536.44, 0.00, 0.00, 0.00, 0.02, -0.50, 0.88, 11:18:37.828
64, 12488.68, 0.00, 0.00, 0.00, -22150.38, 0.00, 0.00, 0.00, 0.00, 0.00, 0.00, 11:18:37.831
65, 12106.00, 0.00, 0.00, 0.00, -22262.98, 0.00, 0.00, 0.00, 0.00, 0.00, 0.00, 11:18:37.836
66, 13831.35, 0.00, 0.00, 0.00, -21656.20, 0.00, 0.00, 0.00, 0.00, 0.00, 0.00, 11:18:37.839
67, 14526.98, 0.00, 0.00, 0.00, -21443.30, 0.00, 0.00, 0.00, 0.00, 0.00, 0.00, 11:18:37.843
68, 12777.22, 0.00, 0.00, 0.00, -22028.11, 0.00, 0.00, 0.00, 0.00, 0.00, 0.00, 11:18:37.847
69, 11959.39, 0.00, 0.00, 0.00, -22273.58, 0.00, 0.00, 0.00, 0.00, 0.00, 0.00, 11:18:37.851
70, 13473.65, 0.00, 0.00, 0.00, -21787.29, 0.00, 0.00, 0.00, 0.00, 0.00, 0.00, 11:18:37.855
71, 14654.05, 0.00, 0.00, 0.00, -21419.88, 0.00, 0.00, 0.00, 0.00, 0.00, 0.00, 11:18:37.860
72, 13124.97, 0.00, 0.00, 0.00, -21923.86, 0.00, 0.00, 0.00, 0.00, 0.00, 0.00, 11:18:37.863
73, 11928.77, 0.00, 0.00, 0.00, -22300.31, 0.00, 0.00, 0.00, 0.01, -0.50, 0.88, 11:18:37.867
74, 13125.32, 0.00, 0.00, 0.00, -21896.06, 0.00, 0.00, 0.00, 0.00, 0.00, 0.00, 11:18:37.870
75, 14673.32, 0.00, 0.00, 0.00, -21396.65, 0.00, 0.00, 0.00, 0.00, 0.00, 0.00, 11:18:37.874
76, 13479.58, 0.00, 0.00, 0.00, -21783.88, 0.00, 0.00, 0.00, 0.00, 0.00, 0.00, 11:18:37.879
77, 11969.52, 0.00, 0.00, 0.00, -22264.26, 0.00, 0.00, 0.00, 0.00, 0.00, 0.00, 11:18:37.884
