%OpenBCI Raw EEG Data
%
%Sample Rate = 250.0 Hz
%First Column = SampleIndex
%Last Column = Timestamp 
%Other Columns = EEG data in microvolts followed by Accel Data (in G) interleaved with Aux Data
0, 0.00, 0.00, 0.00, 0.00, 0.00, 0.00, 0.00, 0.00, 0.00, 0.00, 0.00, 10:59:10.436
1, 159.55, 0.00, 0.00, -187500.02, 0.00, 0.00, 0.00, 0.00, 0.32, -0.29, 0.75, 10:59:10.452
2, 182.73, 0.00, 0.00, -187500.02, 0.00, 0.00, 0.00, 0.00, 0.00, 0.00, 0.00, 10:59:10.455
3, 110.42, 0.00, 0.00, -187500.02, 0.00, 0.00, 0.00, 0.00, 0.00, 0.00, 0.00, 10:59:10.459
4, 91.69, 0.00, 0.00, -187500.02, 0.00, 0.00, 0.00, 0.00, 0.00, 0.00, 0.00, 10:59:10.462
5, 158.21, 0.00, 0.00, -187500.02, 0.00, 0.00, 0.00, 0.00, 0.00, 0.00, 0.00, 10:59:10.466
6, 149.15, 0.00, 0.00, -187500.02, 0.00, 0.00, 0.00, 0.00, 0.00, 0.00, 0.00, 10:59:10.470
7, 70.16, 0.00, 0.00, -187500.02, 0.00, 0.00, 0.00, 0.00, 0.00, 0.00, 0.00, 10:59:10.474
8, 45.40, 0.00, 0.00, -187500.02, 0.00, 0.00, 0.00, 0.00, 0.77, -0.04, 0.64, 10:59:10.479
9, 128.30, 0.00, 0.00, -187500.02, 0.00, 0.00, 0.00, 0.00, 0.00, 0.00, 0.00, 10:59:10.482
10, 176.27, 0.00, 0.00, -187500.02, 0.00, 0.00, 0.00, 0.00, 0.00, 0.00, 0.00, 10:59:10.486
11, 120.99, 0.00, 0.00, -187500.02, 0.00, 0.00, 0.00, 0.00, 0.00, 0.00, 0.00, 10:59:10.490
12, 79.75, 0.00, 0.00, -187500.02, 0.00, 0.00, 0.00, 0.00, 0.00, 0.00, 0.00, 10:59:10.494
13, 133.69, 0.00, 0.00, -187500.02, 0.00, 0.00, 0.00, 0.00, 0.00, 0.00, 0.00, 10:59:10.498
14, 196.23, 0.00, 0.00, -187500.02, 0.00, 0.00, 0.00, 0.00, 0.00, 0.00, 0.00, 10:59:10.502
15, 143.70, 0.00, 0.00, -187500.02, 0.00, 0.00, 0.00, 0.00, 0.00, 0.00, 0.00, 10:59:10.506
16, 88.58, 0.00, 0.00, -187500.02, 0.00, 0.00, 0.00, 0.00, 0.00, 0.00, 0.00, 10:59:10.509
17, 119.11, 0.00, 0.00, -187500.02, 0.00, 0.00, 0.00, 0.00, 0.77, -0.06, 0.64, 10:59:10.514
18, 167.08, 0.00, 0.00, -187500.02, 0.00, 0.00, 0.00, 0.00, 0.00, 0.00, 0.00, 10:59:10.518
19, 144.44, 0.00, 0.00, -187500.02, 0.00, 0.00, 0.00, 0.00, 0.00, 0.00, 0.00, 10:59:10.522
20, 81.03, 0.00, 0.00, -187500.02, 0.00, 0.00, 0.00, 0.00, 0.00, 0.00, 0.00, 10:59:10.526
21, 92.18, 0.00, 0.00, -187500.02, 0.00, 0.00, 0.00, 0.00, 0.00, 0.00, 0.00, 10:59:10.530
22, 174.77, 0.00, 0.00, -187500.02, 0.00, 0.00, 0.00, 0.00, 0.00, 0.00, 0.00, 10:59:10.534
23, 180.74, 0.00, 0.00, -187500.02, 0.00, 0.00, 0.00, 0.00, 0.00, 0.00, 0.00, 10:59:10.536
24, 104.03, 0.00, 0.00, -187500.02, 0.00, 0.00, 0.00, 0.00, 0.00, 0.00, 0.00, 10:59:10.541
25, 76.89, 0.00, 0.00, -187500.02, 0.00, 0.00, 0.00, 0.00, 0.00, 0.00, 0.00, 10:59:10.546
26, 137.93, 0.00, 0.00, -187500.02, 0.00, 0.00, 0.00, 0.00, 0.00, 0.00, 0.00, 10:59:10.550
27, 160.55, 0.00, 0.00, -187500.02, 0.00, 0.00, 0.00, 0.00, 0.76, -0.06, 0.65, 10:59:10.553
28, 85.25, 0.00, 0.00, -187500.02, 0.00, 0.00, 0.00, 0.00, 0.00, 0.00, 0.00, 10:59:10.558
29, 70.48, 0.00, 0.00, -187500.02, 0.00, 0.00, 0.00, 0.00, 0.00, 0.00, 0.00, 10:59:10.562
30, 157.22, 0.00, 0.00, -187500.02, 0.00, 0.00, 0.00, 0.00, 0.00, 0.00, 0.00, 10:59:10.565
31, 194.44, 0.00, 0.00, -187500.02, 0.00, 0.00, 0.00, 0.00, 0.00, 0.00, 0.00, 10:59:10.570
32, 127.92, 0.00, 0.00, -187500.02, 0.00, 0.00, 0.00, 0.00, 0.00, 0.00, 0.00, 10:59:10.574
33, 81.18, 0.00, 0.00, -187500.02, 0.00, 0.00, 0.00, 0.00, 0.00, 0.00, 0.00, 10:59:10.578
34, 140.82, 0.00, 0.00, -187500.02, 0.00, 0.00, 0.00, 0.00, 0.00, 0.00, 0.00, 10:59:10.582
35, 199.85, 0.00, 0.00, -187500.02, 0.00, 0.00, 0.00, 0.00, 0.00, 0.00, 0.00, 10:59:10.586
36, 141.58, 0.00, 0.00, -187500.02, 0.00, 0.00, 0.00, 0.00, 0.00, 0.00, 0.00, 10:59:10.590
37, 64.24, 0.00, 0.00, -187500.02, 0.00, 0.00, 0.00, 0.00, 0.76, -0.06, 0.65, 10:59:10.593
38, 94.39, 0.00, 0.00, -187500.02, 0.00, 0.00, 0.00, 0.00, 0.00, 0.00, 0.00, 10:59:10.597
39, 168.06, 0.00, 0.00, -187500.02, 0.00, 0.00, 0.00, 0.00, 0.00, 0.00, 0.00, 10:59:10.603
40, 137.75, 0.00, 0.00, -187500.02, 0.00, 0.00, 0.00, 0.00, 0.00, 0.00, 0.00, 10:59:10.607
41, 79.93, 0.00, 0.00, -187500.02, 0.00, 0.00, 0.00, 0.00, 0.00, 0.00, 0.00, 10:59:10.613
42, 108.09, 0.00, 0.00, -187500.02, 0.00, 0.00, 0.00, 0.00, 0.00, 0.00, 0.00, 10:59:10.613
43, 197.50, 0.00, 0.00, -187500.02, 0.00, 0.00, 0.00, 0.00, 0.00, 0.00, 0.00, 10:59:10.617
44, 184.98, 0.00, 0.00, -187500.02, 0.00, 0.00, 0.00, 0.00, 0.00, 0.00, 0.00, 10:59:10.621
45, 109.23, 0.00, 0.00, -187500.02, 0.00, 0.00, 0.00, 0.00, 0.00, 0.00, 0.00, 10:59:10.626
46, 124.12, 0.00, 0.00, -187500.02, 0.00, 0.00, 0.00, 0.00, 0.00, 0.00, 0.00, 10:59:10.630
47, 215.31, 0.00, 0.00, -187500.02, 0.00, 0.00, 0.00, 0.00, 0.76, -0.06, 0.65, 10:59:10.634
48, 213.44, 0.00, 0.00, -187500.02, 0.00, 0.00, 0.00, 0.00, 0.00, 0.00, 0.00, 10:59:10.639
49, 110.71, 0.00, 0.00, -187500.02, 0.00, 0.00, 0.00, 0.00, 0.00, 0.00, 0.00, 10:59:10.641
50, 77.85, 0.00, 0.00, -187500.02, 0.00, 0.00, 0.00, 0.00, 0.00, 0.00, 0.00, 10:59:10.644
51, 161.51, 0.00, 0.00, -187500.02, 0.00, 0.00, 0.00, 0.00, 0.00, 0.00, 0.00, 10:59:10.650
52, 183.24, 0.00, 0.00, -187500.02, 0.00, 0.00, 0.00, 0.00, 0.00, 0.00, 0.00, 10:59:10.653
53, 112.23, 0.00, 0.00, -187500.02, 0.00, 0.00, 0.00, 0.00, 0.00, 0.00, 0.00, 10:59:10.659
54, 85.14, 0.00, 0.00, -187500.02, 0.00, 0.00, 0.00, 0.00, 0.00, 0.00, 0.00, 10:59:10.662
55, 173.09, 0.00, 0.00, -187500.02, 0.00, 0.00, 0.00, 0.00, 0.00, 0.00, 0.00, 10:59:10.666
56, 218.67, 0.00, 0.00, -187500.02, 0.00, 0.00, 0.00, 0.00, 0.00, 0.00, 0.00, 10:59:10.673
57, 158.45, 0.00, 0.00, -187500.02, 0.00, 0.00, 0.00, 0.00, 0.76, -0.06, 0.64, 10:59:10.673
58, 121.46, 0.00, 0.00, -187500.02, 0.00, 0.00, 0.00, 0.00, 0.00, 0.00, 0.00, 10:59:10.677
59, 178.77, 0.00, 0.00, -187500.02, 0.00, 0.00, 0.00, 0.00, 0.00, 0.00, 0.00, 10:59:10.681
60, 232.70, 0.00, 0.00, -187500.02, 0.00, 0.00, 0.00, 0.00, 0.00, 0.00, 0.00, 10:59:10.686
61, 181.23, 0.00, 0.00, -187500.02, 0.00, 0.00, 0.00, 0.00, 0.00, 0.00, 0.00, 10:59:10.690
62, 96.65, 0.00, 0.00, -187500.02, 0.00, 0.00, 0.00, 0.00, 0.00, 0.00, 0.00, 10:59:10.694
63, 113.95, 0.00, 0.00, -187500.02, 0.00, 0.00, 0.00, 0.00, 0.00, 0.00, 0.00, 10:59:10.698
64, 193.86, 0.00, 0.00, -187500.02, 0.00, 0.00, 0.00, 0.00, 0.00, 0.00, 0.00, 10:59:10.707
65, 164.15, 0.00, 0.00, -187500.02, 0.00, 0.00, 0.00, 0.00, 0.00, 0.00, 0.00, 10:59:10.708
66, 97.19, 0.00, 0.00, -187500.02, 0.00, 0.00, 0.00, 0.00, 0.76, -0.06, 0.64, 10:59:10.709
67, 123.14, 0.00, 0.00, -187500.02, 0.00, 0.00, 0.00, 0.00, 0.00, 0.00, 0.00, 10:59:10.714
68, 212.68, 0.00, 0.00, -187500.02, 0.00, 0.00, 0.00, 0.00, 0.00, 0.00, 0.00, 10:59:10.718
69, 199.98, 0.00, 0.00, -187500.02, 0.00, 0.00, 0.00, 0.00, 0.00, 0.00, 0.00, 10:59:10.721
70, 115.29, 0.00, 0.00, -187500.02, 0.00, 0.00, 0.00, 0.00, 0.00, 0.00, 0.00, 10:59:10.726
71, 85.79, 0.00, 0.00, -187500.02, 0.00, 0.00, 0.00, 0.00, 0.00, 0.00, 0.00, 10:59:10.729
72, 163.79, 0.00, 0.00, -187500.02, 0.00, 0.00, 0.00, 0.00, 0.00, 0.00, 0.00, 10:59:10.733
73, 178.32, 0.00, 0.00, -187500.02, 0.00, 0.00, 0.00, 0.00, 0.00, 0.00, 0.00, 10:59:10.737
74, 114.31, 0.00, 0.00, -187500.02, 0.00, 0.00, 0.00, 0.00, 0.00, 0.00, 0.00, 10:59:10.741
75, 106.53, 0.00, 0.00, -187500.02, 0.00, 0.00, 0.00, 0.00, 0.00, 0.00, 0.00, 10:59:10.746
76, 190.08, 0.00, 0.00, -187500.02, 0.00, 0.00, 0.00, 0.00, 0.76, -0.06, 0.65, 10:59:10.749
77, 220.97, 0.00, 0.00, -187500.02, 0.00, 0.00, 0.00, 0.00, 0.00, 0.00, 0.00, 10:59:10.754
78, 149.53, 0.00, 0.00, -187500.02, 0.00, 0.00, 0.00, 0.00, 0.00, 0.00, 0.00, 10:59:10.758
79, 114.13, 0.00, 0.00, -187500.02, 0.00, 0.00, 0.00, 0.00, 0.00, 0.00, 0.00, 10:59:10.761
80, 176.65, 0.00, 0.00, -187500.02, 0.00, 0.00, 0.00, 0.00, 0.00, 0.00, 0.00, 10:59:10.765
81, 222.31, 0.00, 0.00, -187500.02, 0.00, 0.00, 0.00, 0.00, 0.00, 0.00, 0.00, 10:59:10.772
82, 136.52, 0.00, 0.00, -187500.02, 0.00, 0.00, 0.00, 0.00, 0.00, 0.00, 0.00, 10:59:10.775
83, 76.98, 0.00, 0.00, -187500.02, 0.00, 0.00, 0.00, 0.00, 0.00, 0.00, 0.00, 10:59:10.777
84, 137.37, 0.00, 0.00, -187500.02, 0.00, 0.00, 0.00, 0.00, 0.00, 0.00, 0.00, 10:59:10.781
85, 210.42, 0.00, 0.00, -187500.02, 0.00, 0.00, 0.00, 0.00, 0.00, 0.00, 0.00, 10:59:10.785
86, 170.23, 0.00, 0.00, -187500.02, 0.00, 0.00, 0.00, 0.00, 0.77, -0.07, 0.65, 10:59:10.789
87, 105.90, 0.00, 0.00, -187500.02, 0.00, 0.00, 0.00, 0.00, 0.00, 0.00, 0.00, 10:59:10.794
88, 146.38, 0.00, 0.00, -187500.02, 0.00, 0.00, 0.00, 0.00, 0.00, 0.00, 0.00, 10:59:10.797
89, 223.58, 0.00, 0.00, -187500.02, 0.00, 0.00, 0.00, 0.00, 0.00, 0.00, 0.00, 10:59:10.806
90, 194.26, 0.00, 0.00, -187500.02, 0.00, 0.00, 0.00, 0.00, 0.00, 0.00, 0.00, 10:59:10.806
91, 114.64, 0.00, 0.00, -187500.02, 0.00, 0.00, 0.00, 0.00, 0.00, 0.00, 0.00, 10:59:10.809
92, 99.53, 0.00, 0.00, -187500.02, 0.00, 0.00, 0.00, 0.00, 0.00, 0.00, 0.00, 10:59:10.813
93, 163.93, 0.00, 0.00, -187500.02, 0.00, 0.00, 0.00, 0.00, 0.00, 0.00, 0.00, 10:59:10.818
94, 165.65, 0.00, 0.00, -187500.02, 0.00, 0.00, 0.00, 0.00, 0.00, 0.00, 0.00, 10:59:10.821
95, 99.53, 0.00, 0.00, -187500.02, 0.00, 0.00, 0.00, 0.00, 0.00, 0.00, 0.00, 10:59:10.826
96, 100.43, 0.00, 0.00, -187500.02, 0.00, 0.00, 0.00, 0.00, 0.76, -0.06, 0.65, 10:59:10.830
97, 186.35, 0.00, 0.00, -187500.02, 0.00, 0.00, 0.00, 0.00, 0.00, 0.00, 0.00, 10:59:10.834
98, 201.88, 0.00, 0.00, -187500.02, 0.00, 0.00, 0.00, 0.00, 0.00, 0.00, 0.00, 10:59:10.837
99, 134.69, 0.00, 0.00, -187500.02, 0.00, 0.00, 0.00, 0.00, 0.00, 0.00, 0.00, 10:59:10.841
100, 116.85, 0.00, 0.00, -187500.02, 0.00, 0.00, 0.00, 0.00, 0.00, 0.00, 0.00, 10:59:10.845
101, 199.71, 0.00, 0.00, -187500.02, 0.00, 0.00, 0.00, 0.00, 0.00, 0.00, 0.00, 10:59:10.850
102, 235.95, 0.00, 0.00, -187500.02, 0.00, 0.00, 0.00, 0.00, 0.00, 0.00, 0.00, 10:59:10.854
103, 163.68, 0.00, 0.00, -187500.02, 0.00, 0.00, 0.00, 0.00, 0.00, 0.00, 0.00, 10:59:10.856
104, 96.09, 0.00, 0.00, -187500.02, 0.00, 0.00, 0.00, 0.00, 0.00, 0.00, 0.00, 10:59:10.860
105, 152.80, 0.00, 0.00, -187500.02, 0.00, 0.00, 0.00, 0.00, 0.77, -0.05, 0.64, 10:59:10.864
106, 221.82, 0.00, 0.00, -187500.02, 0.00, 0.00, 0.00, 0.00, 0.00, 0.00, 0.00, 10:59:10.869
107, 163.48, 0.00, 0.00, -187500.02, 0.00, 0.00, 0.00, 0.00, 0.00, 0.00, 0.00, 10:59:10.874
108, 110.40, 0.00, 0.00, -187500.02, 0.00, 0.00, 0.00, 0.00, 0.00, 0.00, 0.00, 10:59:10.878
109, 160.42, 0.00, 0.00, -187500.02, 0.00, 0.00, 0.00, 0.00, 0.00, 0.00, 0.00, 10:59:10.881
110, 226.18, 0.00, 0.00, -187500.02, 0.00, 0.00, 0.00, 0.00, 0.00, 0.00, 0.00, 10:59:10.885
111, 179.13, 0.00, 0.00, -187500.02, 0.00, 0.00, 0.00, 0.00, 0.00, 0.00, 0.00, 10:59:10.888
112, 127.02, 0.00, 0.00, -187500.02, 0.00, 0.00, 0.00, 0.00, 0.00, 0.00, 0.00, 10:59:10.892
113, 173.49, 0.00, 0.00, -187500.02, 0.00, 0.00, 0.00, 0.00, 0.00, 0.00, 0.00, 10:59:10.898
114, 258.34, 0.00, 0.00, -187500.02, 0.00, 0.00, 0.00, 0.00, 0.00, 0.00, 0.00, 10:59:10.905
115, 225.26, 0.00, 0.00, -187500.02, 0.00, 0.00, 0.00, 0.00, 0.77, -0.06, 0.65, 10:59:10.907
116, 122.76, 0.00, 0.00, -187500.02, 0.00, 0.00, 0.00, 0.00, 0.00, 0.00, 0.00, 10:59:10.910
117, 121.37, 0.00, 0.00, -187500.02, 0.00, 0.00, 0.00, 0.00, 0.00, 0.00, 0.00, 10:59:10.914
118, 210.84, 0.00, 0.00, -187500.02, 0.00, 0.00, 0.00, 0.00, 0.00, 0.00, 0.00, 10:59:10.916
119, 210.49, 0.00, 0.00, -187500.02, 0.00, 0.00, 0.00, 0.00, 0.00, 0.00, 0.00, 10:59:10.920
120, 139.59, 0.00, 0.00, -187500.02, 0.00, 0.00, 0.00, 0.00, 0.00, 0.00, 0.00, 10:59:10.925
121, 140.03, 0.00, 0.00, -187500.02, 0.00, 0.00, 0.00, 0.00, 0.00, 0.00, 0.00, 10:59:10.929
122, 229.46, 0.00, 0.00, -187500.02, 0.00, 0.00, 0.00, 0.00, 0.00, 0.00, 0.00, 10:59:10.934
123, 250.32, 0.00, 0.00, -187500.02, 0.00, 0.00, 0.00, 0.00, 0.00, 0.00, 0.00, 10:59:10.938
124, 178.70, 0.00, 0.00, -187500.02, 0.00, 0.00, 0.00, 0.00, 0.00, 0.00, 0.00, 10:59:10.940
125, 151.28, 0.00, 0.00, -187500.02, 0.00, 0.00, 0.00, 0.00, 0.76, -0.05, 0.65, 10:59:10.944
126, 224.12, 0.00, 0.00, -187500.02, 0.00, 0.00, 0.00, 0.00, 0.00, 0.00, 0.00, 10:59:10.948
127, 269.38, 0.00, 0.00, -187500.02, 0.00, 0.00, 0.00, 0.00, 0.00, 0.00, 0.00, 10:59:10.952
128, 196.32, 0.00, 0.00, -187500.02, 0.00, 0.00, 0.00, 0.00, 0.00, 0.00, 0.00, 10:59:10.957
129, 119.72, 0.00, 0.00, -187500.02, 0.00, 0.00, 0.00, 0.00, 0.00, 0.00, 0.00, 10:59:10.961
130, 168.96, 0.00, 0.00, -187500.02, 0.00, 0.00, 0.00, 0.00, 0.00, 0.00, 0.00, 10:59:10.965
131, 240.08, 0.00, 0.00, -187500.02, 0.00, 0.00, 0.00, 0.00, 0.00, 0.00, 0.00, 10:59:10.969
132, 204.05, 0.00, 0.00, -187500.02, 0.00, 0.00, 0.00, 0.00, 0.00, 0.00, 0.00, 10:59:10.972
133, 145.60, 0.00, 0.00, -187500.02, 0.00, 0.00, 0.00, 0.00, 0.00, 0.00, 0.00, 10:59:10.976
134, 197.05, 0.00, 0.00, -187500.02, 0.00, 0.00, 0.00, 0.00, 0.00, 0.00, 0.00, 10:59:10.981
135, 264.44, 0.00, 0.00, -187500.02, 0.00, 0.00, 0.00, 0.00, 0.77, -0.06, 0.66, 10:59:10.986
136, 233.58, 0.00, 0.00, -187500.02, 0.00, 0.00, 0.00, 0.00, 0.00, 0.00, 0.00, 10:59:10.991
137, 179.28, 0.00, 0.00, -187500.02, 0.00, 0.00, 0.00, 0.00, 0.00, 0.00, 0.00, 10:59:10.993
138, 215.34, 0.00, 0.00, -187500.02, 0.00, 0.00, 0.00, 0.00, 0.00, 0.00, 0.00, 10:59:10.996
139, 288.07, 0.00, 0.00, -187500.02, 0.00, 0.00, 0.00, 0.00, 0.00, 0.00, 0.00, 10:59:11.000
140, 262.10, 0.00, 0.00, -187500.02, 0.00, 0.00, 0.00, 0.00, 0.00, 0.00, 0.00, 10:59:11.004
141, 169.99, 0.00, 0.00, -187500.02, 0.00, 0.00, 0.00, 0.00, 0.00, 0.00, 0.00, 10:59:11.010
142, 146.02, 0.00, 0.00, -187500.02, 0.00, 0.00, 0.00, 0.00, 0.00, 0.00, 0.00, 10:59:11.014
143, 239.99, 0.00, 0.00, -187500.02, 0.00, 0.00, 0.00, 0.00, 0.00, 0.00, 0.00, 10:59:11.018
144, 250.21, 0.00, 0.00, -187500.02, 0.00, 0.00, 0.00, 0.00, 0.00, 0.00, 0.00, 10:59:11.020
145, 176.60, 0.00, 0.00, -187500.02, 0.00, 0.00, 0.00, 0.00, 0.76, -0.05, 0.65, 10:59:11.024
146, 162.52, 0.00, 0.00, -187500.02, 0.00, 0.00, 0.00, 0.00, 0.00, 0.00, 0.00, 10:59:11.034
147, 258.07, 0.00, 0.00, -187500.02, 0.00, 0.00, 0.00, 0.00, 0.00, 0.00, 0.00, 10:59:11.035
148, 291.94, 0.00, 0.00, -187500.02, 0.00, 0.00, 0.00, 0.00, 0.00, 0.00, 0.00, 10:59:11.038
149, 210.87, 0.00, 0.00, -187500.02, 0.00, 0.00, 0.00, 0.00, 0.00, 0.00, 0.00, 10:59:11.042
150, 143.45, 0.00, 0.00, -187500.02, 0.00, 0.00, 0.00, 0.00, 0.00, 0.00, 0.00, 10:59:11.046
151, 203.87, 0.00, 0.00, -187500.02, 0.00, 0.00, 0.00, 0.00, 0.00, 0.00, 0.00, 10:59:11.048
152, 251.90, 0.00, 0.00, -187500.02, 0.00, 0.00, 0.00, 0.00, 0.00, 0.00, 0.00, 10:59:11.052
153, 195.33, 0.00, 0.00, -187500.02, 0.00, 0.00, 0.00, 0.00, 0.00, 0.00, 0.00, 10:59:11.057
154, 156.42, 0.00, 0.00, -187500.02, 0.00, 0.00, 0.00, 0.00, 0.77, -0.05, 0.66, 10:59:11.060
155, 223.83, 0.00, 0.00, -187500.02, 0.00, 0.00, 0.00, 0.00, 0.00, 0.00, 0.00, 10:59:11.064
156, 289.43, 0.00, 0.00, -187500.02, 0.00, 0.00, 0.00, 0.00, 0.00, 0.00, 0.00, 10:59:11.071
157, 242.92, 0.00, 0.00, -187500.02, 0.00, 0.00, 0.00, 0.00, 0.00, 0.00, 0.00, 10:59:11.074
158, 171.50, 0.00, 0.00, -187500.02, 0.00, 0.00, 0.00, 0.00, 0.00, 0.00, 0.00, 10:59:11.077
159, 212.92, 0.00, 0.00, -187500.02, 0.00, 0.00, 0.00, 0.00, 0.00, 0.00, 0.00, 10:59:11.080
160, 282.68, 0.00, 0.00, -187500.02, 0.00, 0.00, 0.00, 0.00, 0.00, 0.00, 0.00, 10:59:11.085
161, 240.24, 0.00, 0.00, -187500.02, 0.00, 0.00, 0.00, 0.00, 0.00, 0.00, 0.00, 10:59:11.089
162, 134.20, 0.00, 0.00, -187500.02, 0.00, 0.00, 0.00, 0.00, 0.00, 0.00, 0.00, 10:59:11.092
163, 162.70, 0.00, 0.00, -187500.02, 0.00, 0.00, 0.00, 0.00, 0.00, 0.00, 0.00, 10:59:11.097
164, 262.25, 0.00, 0.00, -187500.02, 0.00, 0.00, 0.00, 0.00, 0.77, -0.06, 0.65, 10:59:11.101
165, 251.64, 0.00, 0.00, -187500.02, 0.00, 0.00, 0.00, 0.00, 0.00, 0.00, 0.00, 10:59:11.105
166, 178.17, 0.00, 0.00, -187500.02, 0.00, 0.00, 0.00, 0.00, 0.00, 0.00, 0.00, 10:59:11.109
167, 177.83, 0.00, 0.00, -187500.02, 0.00, 0.00, 0.00, 0.00, 0.00, 0.00, 0.00, 10:59:11.113
168, 263.57, 0.00, 0.00, -187500.02, 0.00, 0.00, 0.00, 0.00, 0.00, 0.00, 0.00, 10:59:11.116
169, 279.67, 0.00, 0.00, -187500.02, 0.00, 0.00, 0.00, 0.00, 0.00, 0.00, 0.00, 10:59:11.120
170, 206.95, 0.00, 0.00, -187500.02, 0.00, 0.00, 0.00, 0.00, 0.00, 0.00, 0.00, 10:59:11.126
171, 185.43, 0.00, 0.00, -187500.02, 0.00, 0.00, 0.00, 0.00, 0.00, 0.00, 0.00, 10:59:11.129
172, 268.40, 0.00, 0.00, -187500.02, 0.00, 0.00, 0.00, 0.00, 0.00, 0.00, 0.00, 10:59:11.133
173, 279.51, 0.00, 0.00, -187500.02, 0.00, 0.00, 0.00, 0.00, 0.00, 0.00, 0.00, 10:59:11.137
174, 183.64, 0.00, 0.00, -187500.02, 0.00, 0.00, 0.00, 0.00, 0.77, -0.05, 0.65, 10:59:11.141
175, 151.97, 0.00, 0.00, -187500.02, 0.00, 0.00, 0.00, 0.00, 0.00, 0.00, 0.00, 10:59:11.144
176, 231.74, 0.00, 0.00, -187500.02, 0.00, 0.00, 0.00, 0.00, 0.00, 0.00, 0.00, 10:59:11.149
177, 287.69, 0.00, 0.00, -187500.02, 0.00, 0.00, 0.00, 0.00, 0.00, 0.00, 0.00, 10:59:11.154
178, 236.17, 0.00, 0.00, -187500.02, 0.00, 0.00, 0.00, 0.00, 0.00, 0.00, 0.00, 10:59:11.156
179, 177.96, 0.00, 0.00, -187500.02, 0.00, 0.00, 0.00, 0.00, 0.00, 0.00, 0.00, 10:59:11.159
180, 237.67, 0.00, 0.00, -187500.02, 0.00, 0.00, 0.00, 0.00, 0.00, 0.00, 0.00, 10:59:11.164
181, 312.01, 0.00, 0.00, -187500.02, 0.00, 0.00, 0.00, 0.00, 0.00, 0.00, 0.00, 10:59:11.169
182, 267.82, 0.00, 0.00, -187500.02, 0.00, 0.00, 0.00, 0.00, 0.00, 0.00, 0.00, 10:59:11.172
183, 198.73, 0.00, 0.00, -187500.02, 0.00, 0.00, 0.00, 0.00, 0.00, 0.00, 0.00, 10:59:11.177
184, 221.01, 0.00, 0.00, -187500.02, 0.00, 0.00, 0.00, 0.00, 0.76, -0.06, 0.65, 10:59:11.182
185, 273.67, 0.00, 0.00, -187500.02, 0.00, 0.00, 0.00, 0.00, 0.00, 0.00, 0.00, 10:59:11.184
186, 243.01, 0.00, 0.00, -187500.02, 0.00, 0.00, 0.00, 0.00, 0.00, 0.00, 0.00, 10:59:11.188
187, 182.17, 0.00, 0.00, -187500.02, 0.00, 0.00, 0.00, 0.00, 0.00, 0.00, 0.00, 10:59:11.193
188, 206.84, 0.00, 0.00, -187500.02, 0.00, 0.00, 0.00, 0.00, 0.00, 0.00, 0.00, 10:59:11.196
189, 288.09, 0.00, 0.00, -187500.02, 0.00, 0.00, 0.00, 0.00, 0.00, 0.00, 0.00, 10:59:11.200
190, 273.56, 0.00, 0.00, -187500.02, 0.00, 0.00, 0.00, 0.00, 0.00, 0.00, 0.00, 10:59:11.205
191, 202.15, 0.00, 0.00, -187500.02, 0.00, 0.00, 0.00, 0.00, 0.00, 0.00, 0.00, 10:59:11.209
192, 208.56, 0.00, 0.00, -187500.02, 0.00, 0.00, 0.00, 0.00, 0.00, 0.00, 0.00, 10:59:11.212
193, 292.61, 0.00, 0.00, -187500.02, 0.00, 0.00, 0.00, 0.00, 0.00, 0.00, 0.00, 10:59:11.216
194, 293.39, 0.00, 0.00, -187500.02, 0.00, 0.00, 0.00, 0.00, 0.76, -0.07, 0.65, 10:59:11.221
195, 212.03, 0.00, 0.00, -187500.02, 0.00, 0.00, 0.00, 0.00, 0.00, 0.00, 0.00, 10:59:11.225
196, 165.18, 0.00, 0.00, -187500.02, 0.00, 0.00, 0.00, 0.00, 0.00, 0.00, 0.00, 10:59:11.228
197, 241.31, 0.00, 0.00, -187500.02, 0.00, 0.00, 0.00, 0.00, 0.00, 0.00, 0.00, 10:59:11.233
198, 281.10, 0.00, 0.00, -187500.02, 0.00, 0.00, 0.00, 0.00, 0.00, 0.00, 0.00, 10:59:11.236
199, 223.79, 0.00, 0.00, -187500.02, 0.00, 0.00, 0.00, 0.00, 0.00, 0.00, 0.00, 10:59:11.240
200, 197.21, 0.00, 0.00, -187500.02, 0.00, 0.00, 0.00, 0.00, 0.00, 0.00, 0.00, 10:59:11.244
201, 276.29, 0.00, 0.00, -187500.02, 0.00, 0.00, 0.00, 0.00, 0.00, 0.00, 0.00, 10:59:11.248
202, 326.98, 0.00, 0.00, -187500.02, 0.00, 0.00, 0.00, 0.00, 0.00, 0.00, 0.00, 10:59:11.253
203, 265.92, 0.00, 0.00, -187500.02, 0.00, 0.00, 0.00, 0.00, 0.76, -0.05, 0.66, 10:59:11.257
204, 213.19, 0.00, 0.00, -187500.02, 0.00, 0.00, 0.00, 0.00, 0.00, 0.00, 0.00, 10:59:11.260
205, 271.31, 0.00, 0.00, -187500.02, 0.00, 0.00, 0.00, 0.00, 0.00, 0.00, 0.00, 10:59:11.264
206, 337.85, 0.00, 0.00, -187500.02, 0.00, 0.00, 0.00, 0.00, 0.00, 0.00, 0.00, 10:59:11.269
207, 290.44, 0.00, 0.00, -187500.02, 0.00, 0.00, 0.00, 0.00, 0.00, 0.00, 0.00, 10:59:11.275
208, 186.70, 0.00, 0.00, -187500.02, 0.00, 0.00, 0.00, 0.00, 0.00, 0.00, 0.00, 10:59:11.276
209, 202.51, 0.00, 0.00, -187500.02, 0.00, 0.00, 0.00, 0.00, 0.00, 0.00, 0.00, 10:59:11.281
210, 289.99, 0.00, 0.00, -187500.02, 0.00, 0.00, 0.00, 0.00, 0.00, 0.00, 0.00, 10:59:11.284
211, 275.64, 0.00, 0.00, -187500.02, 0.00, 0.00, 0.00, 0.00, 0.00, 0.00, 0.00, 10:59:11.289
212, 211.25, 0.00, 0.00, -187500.02, 0.00, 0.00, 0.00, 0.00, 0.00, 0.00, 0.00, 10:59:11.291
213, 233.20, 0.00, 0.00, -187500.02, 0.00, 0.00, 0.00, 0.00, 0.76, -0.06, 0.66, 10:59:11.296
214, 313.35, 0.00, 0.00, -187500.02, 0.00, 0.00, 0.00, 0.00, 0.00, 0.00, 0.00, 10:59:11.300
215, 309.19, 0.00, 0.00, -187500.02, 0.00, 0.00, 0.00, 0.00, 0.00, 0.00, 0.00, 10:59:11.304
216, 238.02, 0.00, 0.00, -187500.02, 0.00, 0.00, 0.00, 0.00, 0.00, 0.00, 0.00, 10:59:11.309
217, 234.76, 0.00, 0.00, -187500.02, 0.00, 0.00, 0.00, 0.00, 0.00, 0.00, 0.00, 10:59:11.313
218, 304.43, 0.00, 0.00, -187500.02, 0.00, 0.00, 0.00, 0.00, 0.00, 0.00, 0.00, 10:59:11.316
219, 288.67, 0.00, 0.00, -187500.02, 0.00, 0.00, 0.00, 0.00, 0.00, 0.00, 0.00, 10:59:11.320
220, 208.72, 0.00, 0.00, -187500.02, 0.00, 0.00, 0.00, 0.00, 0.00, 0.00, 0.00, 10:59:11.324
221, 185.70, 0.00, 0.00, -187500.02, 0.00, 0.00, 0.00, 0.00, 0.00, 0.00, 0.00, 10:59:11.328
222, 268.60, 0.00, 0.00, -187500.02, 0.00, 0.00, 0.00, 0.00, 0.00, 0.00, 0.00, 10:59:11.332
223, 315.81, 0.00, 0.00, -187500.02, 0.00, 0.00, 0.00, 0.00, 0.75, -0.06, 0.66, 10:59:11.337
224, 265.49, 0.00, 0.00, -187500.02, 0.00, 0.00, 0.00, 0.00, 0.00, 0.00, 0.00, 10:59:11.341
225, 232.93, 0.00, 0.00, -187500.02, 0.00, 0.00, 0.00, 0.00, 0.00, 0.00, 0.00, 10:59:11.343
226, 296.54, 0.00, 0.00, -187500.02, 0.00, 0.00, 0.00, 0.00, 0.00, 0.00, 0.00, 10:59:11.348
227, 345.80, 0.00, 0.00, -187500.02, 0.00, 0.00, 0.00, 0.00, 0.00, 0.00, 0.00, 10:59:11.352
228, 290.06, 0.00, 0.00, -187500.02, 0.00, 0.00, 0.00, 0.00, 0.00, 0.00, 0.00, 10:59:11.356
229, 226.15, 0.00, 0.00, -187500.02, 0.00, 0.00, 0.00, 0.00, 0.00, 0.00, 0.00, 10:59:11.359
230, 241.53, 0.00, 0.00, -187500.02, 0.00, 0.00, 0.00, 0.00, 0.00, 0.00, 0.00, 10:59:11.365
231, 310.22, 0.00, 0.00, -187500.02, 0.00, 0.00, 0.00, 0.00, 0.00, 0.00, 0.00, 10:59:11.368
232, 280.65, 0.00, 0.00, -187500.02, 0.00, 0.00, 0.00, 0.00, 0.00, 0.00, 0.00, 10:59:11.372
233, 215.54, 0.00, 0.00, -187500.02, 0.00, 0.00, 0.00, 0.00, 0.76, -0.06, 0.66, 10:59:11.376
234, 249.96, 0.00, 0.00, -187500.02, 0.00, 0.00, 0.00, 0.00, 0.00, 0.00, 0.00, 10:59:11.380
235, 330.16, 0.00, 0.00, -187500.02, 0.00, 0.00, 0.00, 0.00, 0.00, 0.00, 0.00, 10:59:11.384
236, 310.11, 0.00, 0.00, -187500.02, 0.00, 0.00, 0.00, 0.00, 0.00, 0.00, 0.00, 10:59:11.387
237, 234.09, 0.00, 0.00, -187500.02, 0.00, 0.00, 0.00, 0.00, 0.00, 0.00, 0.00, 10:59:11.392
238, 214.98, 0.00, 0.00, -187500.02, 0.00, 0.00, 0.00, 0.00, 0.00, 0.00, 0.00, 10:59:11.397
239, 298.55, 0.00, 0.00, -187500.02, 0.00, 0.00, 0.00, 0.00, 0.00, 0.00, 0.00, 10:59:11.400
240, 313.68, 0.00, 0.00, -187500.02, 0.00, 0.00, 0.00, 0.00, 0.00, 0.00, 0.00, 10:59:11.409
241, 258.48, 0.00, 0.00, -187500.02, 0.00, 0.00, 0.00, 0.00, 0.00, 0.00, 0.00, 10:59:11.409
242, 254.45, 0.00, 0.00, -187500.02, 0.00, 0.00, 0.00, 0.00, 0.76, -0.06, 0.66, 10:59:11.411
243, 342.29, 0.00, 0.00, -187500.02, 0.00, 0.00, 0.00, 0.00, 0.00, 0.00, 0.00, 10:59:11.418
244, 368.13, 0.00, 0.00, -187500.02, 0.00, 0.00, 0.00, 0.00, 0.00, 0.00, 0.00, 10:59:11.424
245, 299.02, 0.00, 0.00, -187500.02, 0.00, 0.00, 0.00, 0.00, 0.00, 0.00, 0.00, 10:59:11.425
246, 255.82, 0.00, 0.00, -187500.02, 0.00, 0.00, 0.00, 0.00, 0.00, 0.00, 0.00, 10:59:11.433
247, 305.08, 0.00, 0.00, -187500.02, 0.00, 0.00, 0.00, 0.00, 0.00, 0.00, 0.00, 10:59:11.433
248, 349.49, 0.00, 0.00, -187500.02, 0.00, 0.00, 0.00, 0.00, 0.00, 0.00, 0.00, 10:59:11.436
249, 299.83, 0.00, 0.00, -187500.02, 0.00, 0.00, 0.00, 0.00, 0.00, 0.00, 0.00, 10:59:11.440
250, 264.04, 0.00, 0.00, -187500.02, 0.00, 0.00, 0.00, 0.00, 0.00, 0.00, 0.00, 10:59:11.444
251, 323.39, 0.00, 0.00, -187500.02, 0.00, 0.00, 0.00, 0.00, 0.00, 0.00, 0.00, 10:59:11.448
252, 380.67, 0.00, 0.00, -187500.02, 0.00, 0.00, 0.00, 0.00, 0.76, -0.07, 0.66, 10:59:11.453
253, 325.64, 0.00, 0.00, -187500.02, 0.00, 0.00, 0.00, 0.00, 0.00, 0.00, 0.00, 10:59:11.456
254, 269.14, 0.00, 0.00, -187500.02, 0.00, 0.00, 0.00, 0.00, 0.00, 0.00, 0.00, 10:59:11.460
255, 316.14, 0.00, 0.00, -187500.02, 0.00, 0.00, 0.00, 0.00, 0.00, 0.00, 0.00, 10:59:11.464
0, 389.79, 0.00, 0.00, -187500.02, 0.00, 0.00, 0.00, 0.00, 0.00, 0.00, 0.00, 10:59:11.471
1, 357.67, 0.00, 0.00, -187500.02, 0.00, 0.00, 0.00, 0.00, 0.00, 0.00, 0.00, 10:59:11.472
2, 260.49, 0.00, 0.00, -187500.02, 0.00, 0.00, 0.00, 0.00, 0.00, 0.00, 0.00, 10:59:11.478
3, 271.86, 0.00, 0.00, -187500.02, 0.00, 0.00, 0.00, 0.00, 0.00, 0.00, 0.00, 10:59:11.480
4, 361.43, 0.00, 0.00, -187500.02, 0.00, 0.00, 0.00, 0.00, 0.00, 0.00, 0.00, 10:59:11.483
5, 351.57, 0.00, 0.00, -187500.02, 0.00, 0.00, 0.00, 0.00, 0.00, 0.00, 0.00, 10:59:11.488
6, 290.08, 0.00, 0.00, -187500.02, 0.00, 0.00, 0.00, 0.00, 0.76, -0.06, 0.66, 10:59:11.493
7, 306.62, 0.00, 0.00, -187500.02, 0.00, 0.00, 0.00, 0.00, 0.00, 0.00, 0.00, 10:59:11.497
8, 393.86, 0.00, 0.00, -187500.02, 0.00, 0.00, 0.00, 0.00, 0.00, 0.00, 0.00, 10:59:11.501
9, 398.31, 0.00, 0.00, -187500.02, 0.00, 0.00, 0.00, 0.00, 0.00, 0.00, 0.00, 10:59:11.504
10, 303.42, 0.00, 0.00, -187500.02, 0.00, 0.00, 0.00, 0.00, 0.00, 0.00, 0.00, 10:59:11.508
11, 280.25, 0.00, 0.00, -187500.02, 0.00, 0.00, 0.00, 0.00, 0.00, 0.00, 0.00, 10:59:11.512
12, 346.41, 0.00, 0.00, -187500.02, 0.00, 0.00, 0.00, 0.00, 0.00, 0.00, 0.00, 10:59:11.516
13, 364.58, 0.00, 0.00, -187500.02, 0.00, 0.00, 0.00, 0.00, 0.00, 0.00, 0.00, 10:59:11.520
14, 285.01, 0.00, 0.00, -187500.02, 0.00, 0.00, 0.00, 0.00, 0.00, 0.00, 0.00, 10:59:11.523
15, 272.67, 0.00, 0.00, -187500.02, 0.00, 0.00, 0.00, 0.00, 0.00, 0.00, 0.00, 10:59:11.528
16, 363.71, 0.00, 0.00, -187500.02, 0.00, 0.00, 0.00, 0.00, 0.76, -0.06, 0.66, 10:59:11.532
17, 411.00, 0.00, 0.00, -187500.02, 0.00, 0.00, 0.00, 0.00, 0.00, 0.00, 0.00, 10:59:11.536
18, 353.16, 0.00, 0.00, -187500.02, 0.00, 0.00, 0.00, 0.00, 0.00, 0.00, 0.00, 10:59:11.540
19, 312.95, 0.00, 0.00, -187500.02, 0.00, 0.00, 0.00, 0.00, 0.00, 0.00, 0.00, 10:59:11.544
20, 371.69, 0.00, 0.00, -187500.02, 0.00, 0.00, 0.00, 0.00, 0.00, 0.00, 0.00, 10:59:11.547
21, 432.60, 0.00, 0.00, -187500.02, 0.00, 0.00, 0.00, 0.00, 0.00, 0.00, 0.00, 10:59:11.551
22, 387.00, 0.00, 0.00, -187500.02, 0.00, 0.00, 0.00, 0.00, 0.00, 0.00, 0.00, 10:59:11.555
23, 309.15, 0.00, 0.00, -187500.02, 0.00, 0.00, 0.00, 0.00, 0.00, 0.00, 0.00, 10:59:11.560
24, 346.97, 0.00, 0.00, -187500.02, 0.00, 0.00, 0.00, 0.00, 0.00, 0.00, 0.00, 10:59:11.564
25, 436.31, 0.00, 0.00, -187500.02, 0.00, 0.00, 0.00, 0.00, 0.00, 0.00, 0.00, 10:59:11.571
26, 418.36, 0.00, 0.00, -187500.02, 0.00, 0.00, 0.00, 0.00, 0.76, -0.07, 0.66, 10:59:11.572
27, 350.01, 0.00, 0.00, -187500.02, 0.00, 0.00, 0.00, 0.00, 0.00, 0.00, 0.00, 10:59:11.576
28, 388.85, 0.00, 0.00, -187500.02, 0.00, 0.00, 0.00, 0.00, 0.00, 0.00, 0.00, 10:59:11.579
29, 478.75, 0.00, 0.00, -187500.02, 0.00, 0.00, 0.00, 0.00, 0.00, 0.00, 0.00, 10:59:11.583
30, 466.06, 0.00, 0.00, -187500.02, 0.00, 0.00, 0.00, 0.00, 0.00, 0.00, 0.00, 10:59:11.588
31, 388.99, 0.00, 0.00, -187500.02, 0.00, 0.00, 0.00, 0.00, 0.00, 0.00, 0.00, 10:59:11.592
32, 371.33, 0.00, 0.00, -187500.02, 0.00, 0.00, 0.00, 0.00, 0.00, 0.00, 0.00, 10:59:11.596
33, 429.69, 0.00, 0.00, -187500.02, 0.00, 0.00, 0.00, 0.00, 0.00, 0.00, 0.00, 10:59:11.600
34, 441.74, 0.00, 0.00, -187500.02, 0.00, 0.00, 0.00, 0.00, 0.00, 0.00, 0.00, 10:59:11.603
35, 382.91, 0.00, 0.00, -187500.02, 0.00, 0.00, 0.00, 0.00, 0.76, -0.05, 0.66, 10:59:11.608
36, 363.06, 0.00, 0.00, -187500.02, 0.00, 0.00, 0.00, 0.00, 0.00, 0.00, 0.00, 10:59:11.611
37, 445.02, 0.00, 0.00, -187500.02, 0.00, 0.00, 0.00, 0.00, 0.00, 0.00, 0.00, 10:59:11.616
38, 481.05, 0.00, 0.00, -187500.02, 0.00, 0.00, 0.00, 0.00, 0.00, 0.00, 0.00, 10:59:11.620
39, 416.57, 0.00, 0.00, -187500.02, 0.00, 0.00, 0.00, 0.00, 0.00, 0.00, 0.00, 10:59:11.625
40, 388.05, 0.00, 0.00, -187500.02, 0.00, 0.00, 0.00, 0.00, 0.00, 0.00, 0.00, 10:59:11.629
41, 457.63, 0.00, 0.00, -187500.02, 0.00, 0.00, 0.00, 0.00, 0.00, 0.00, 0.00, 10:59:11.631
42, 494.17, 0.00, 0.00, -187500.02, 0.00, 0.00, 0.00, 0.00, 0.00, 0.00, 0.00, 10:59:11.635
43, 404.92, 0.00, 0.00, -187500.02, 0.00, 0.00, 0.00, 0.00, 0.00, 0.00, 0.00, 10:59:11.639
44, 326.18, 0.00, 0.00, -187500.02, 0.00, 0.00, 0.00, 0.00, 0.00, 0.00, 0.00, 10:59:11.643
45, 381.16, 0.00, 0.00, -187500.02, 0.00, 0.00, 0.00, 0.00, 0.76, -0.06, 0.65, 10:59:11.648
46, 467.13, 0.00, 0.00, -187500.02, 0.00, 0.00, 0.00, 0.00, 0.00, 0.00, 0.00, 10:59:11.652
47, 425.31, 0.00, 0.00, -187500.02, 0.00, 0.00, 0.00, 0.00, 0.00, 0.00, 0.00, 10:59:11.655
48, 360.82, 0.00, 0.00, -187500.02, 0.00, 0.00, 0.00, 0.00, 0.00, 0.00, 0.00, 10:59:11.660
49, 407.54, 0.00, 0.00, -187500.02, 0.00, 0.00, 0.00, 0.00, 0.00, 0.00, 0.00, 10:59:11.663
50, 481.55, 0.00, 0.00, -187500.02, 0.00, 0.00, 0.00, 0.00, 0.00, 0.00, 0.00, 10:59:11.667
51, 452.69, 0.00, 0.00, -187500.02, 0.00, 0.00, 0.00, 0.00, 0.00, 0.00, 0.00, 10:59:11.676
52, 378.84, 0.00, 0.00, -187500.02, 0.00, 0.00, 0.00, 0.00, 0.00, 0.00, 0.00, 10:59:11.676
53, 396.88, 0.00, 0.00, -187500.02, 0.00, 0.00, 0.00, 0.00, 0.00, 0.00, 0.00, 10:59:11.680
54, 476.23, 0.00, 0.00, -187500.02, 0.00, 0.00, 0.00, 0.00, 0.00, 0.00, 0.00, 10:59:11.684
55, 430.09, 0.00, 0.00, -187500.02, 0.00, 0.00, 0.00, 0.00, 0.76, -0.05, 0.66, 10:59:11.687
56, 339.95, 0.00, 0.00, -187500.02, 0.00, 0.00, 0.00, 0.00, 0.00, 0.00, 0.00, 10:59:11.691
57, 354.48, 0.00, 0.00, -187500.02, 0.00, 0.00, 0.00, 0.00, 0.00, 0.00, 0.00, 10:59:11.695
58, 444.24, 0.00, 0.00, -187500.02, 0.00, 0.00, 0.00, 0.00, 0.00, 0.00, 0.00, 10:59:11.700
59, 460.85, 0.00, 0.00, -187500.02, 0.00, 0.00, 0.00, 0.00, 0.00, 0.00, 0.00, 10:59:11.704
60, 384.76, 0.00, 0.00, -187500.02, 0.00, 0.00, 0.00, 0.00, 0.00, 0.00, 0.00, 10:59:11.709
61, 370.19, 0.00, 0.00, -187500.02, 0.00, 0.00, 0.00, 0.00, 0.00, 0.00, 0.00, 10:59:11.711
62, 452.67, 0.00, 0.00, -187500.02, 0.00, 0.00, 0.00, 0.00, 0.00, 0.00, 0.00, 10:59:11.715
63, 495.45, 0.00, 0.00, -187500.02, 0.00, 0.00, 0.00, 0.00, 0.00, 0.00, 0.00, 10:59:11.719
64, 400.74, 0.00, 0.00, -187500.02, 0.00, 0.00, 0.00, 0.00, 0.00, 0.00, 0.00, 10:59:11.724
65, 348.66, 0.00, 0.00, -187500.02, 0.00, 0.00, 0.00, 0.00, 0.75, -0.06, 0.65, 10:59:11.727
66, 423.03, 0.00, 0.00, -187500.02, 0.00, 0.00, 0.00, 0.00, 0.00, 0.00, 0.00, 10:59:11.732
67, 491.69, 0.00, 0.00, -187500.02, 0.00, 0.00, 0.00, 0.00, 0.00, 0.00, 0.00, 10:59:11.736
68, 438.81, 0.00, 0.00, -187500.02, 0.00, 0.00, 0.00, 0.00, 0.00, 0.00, 0.00, 10:59:11.740
69, 375.58, 0.00, 0.00, -187500.02, 0.00, 0.00, 0.00, 0.00, 0.00, 0.00, 0.00, 10:59:11.743
70, 434.61, 0.00, 0.00, -187500.02, 0.00, 0.00, 0.00, 0.00, 0.00, 0.00, 0.00, 10:59:11.747
71, 511.81, 0.00, 0.00, -187500.02, 0.00, 0.00, 0.00, 0.00, 0.00, 0.00, 0.00, 10:59:11.751
72, 475.51, 0.00, 0.00, -187500.02, 0.00, 0.00, 0.00, 0.00, 0.00, 0.00, 0.00, 10:59:11.755
73, 414.71, 0.00, 0.00, -187500.02, 0.00, 0.00, 0.00, 0.00, 0.00, 0.00, 0.00, 10:59:11.760
74, 437.04, 0.00, 0.00, -187500.02, 0.00, 0.00, 0.00, 0.00, 0.00, 0.00, 0.00, 10:59:11.764
75, 485.44, 0.00, 0.00, -187500.02, 0.00, 0.00, 0.00, 0.00, 0.75, -0.06, 0.65, 10:59:11.767
76, 456.78, 0.00, 0.00, -187500.02, 0.00, 0.00, 0.00, 0.00, 0.00, 0.00, 0.00, 10:59:11.772
77, 385.50, 0.00, 0.00, -187500.02, 0.00, 0.00, 0.00, 0.00, 0.00, 0.00, 0.00, 10:59:11.776
78, 409.08, 0.00, 0.00, -187500.02, 0.00, 0.00, 0.00, 0.00, 0.00, 0.00, 0.00, 10:59:11.779
79, 500.75, 0.00, 0.00, -187500.02, 0.00, 0.00, 0.00, 0.00, 0.00, 0.00, 0.00, 10:59:11.783
80, 504.28, 0.00, 0.00, -187500.02, 0.00, 0.00, 0.00, 0.00, 0.00, 0.00, 0.00, 10:59:11.788
81, 430.70, 0.00, 0.00, -187500.02, 0.00, 0.00, 0.00, 0.00, 0.00, 0.00, 0.00, 10:59:11.792
82, 425.04, 0.00, 0.00, -187500.02, 0.00, 0.00, 0.00, 0.00, 0.00, 0.00, 0.00, 10:59:11.794
83, 503.12, 0.00, 0.00, -187500.02, 0.00, 0.00, 0.00, 0.00, 0.00, 0.00, 0.00, 10:59:11.799
84, 506.33, 0.00, 0.00, -187500.02, 0.00, 0.00, 0.00, 0.00, 0.76, -0.07, 0.66, 10:59:11.803
85, 406.53, 0.00, 0.00, -187500.02, 0.00, 0.00, 0.00, 0.00, 0.00, 0.00, 0.00, 10:59:11.807
86, 367.98, 0.00, 0.00, -187500.02, 0.00, 0.00, 0.00, 0.00, 0.00, 0.00, 0.00, 10:59:11.812
87, 448.11, 0.00, 0.00, -187500.02, 0.00, 0.00, 0.00, 0.00, 0.00, 0.00, 0.00, 10:59:11.817
88, 513.04, 0.00, 0.00, -187500.02, 0.00, 0.00, 0.00, 0.00, 0.00, 0.00, 0.00, 10:59:11.819
89, 462.59, 0.00, 0.00, -187500.02, 0.00, 0.00, 0.00, 0.00, 0.00, 0.00, 0.00, 10:59:11.823
90, 424.30, 0.00, 0.00, -187500.02, 0.00, 0.00, 0.00, 0.00, 0.00, 0.00, 0.00, 10:59:11.828
91, 490.35, 0.00, 0.00, -187500.02, 0.00, 0.00, 0.00, 0.00, 0.00, 0.00, 0.00, 10:59:11.832
92, 548.11, 0.00, 0.00, -187500.02, 0.00, 0.00, 0.00, 0.00, 0.00, 0.00, 0.00, 10:59:11.835
93, 500.43, 0.00, 0.00, -187500.02, 0.00, 0.00, 0.00, 0.00, 0.00, 0.00, 0.00, 10:59:11.839
94, 426.76, 0.00, 0.00, -187500.02, 0.00, 0.00, 0.00, 0.00, 0.76, -0.06, 0.66, 10:59:11.844
95, 441.94, 0.00, 0.00, -187500.02, 0.00, 0.00, 0.00, 0.00, 0.00, 0.00, 0.00, 10:59:11.848
96, 516.71, 0.00, 0.00, -187500.02, 0.00, 0.00, 0.00, 0.00, 0.00, 0.00, 0.00, 10:59:11.850
97, 493.97, 0.00, 0.00, -187500.02, 0.00, 0.00, 0.00, 0.00, 0.00, 0.00, 0.00, 10:59:11.855
98, 422.60, 0.00, 0.00, -187500.02, 0.00, 0.00, 0.00, 0.00, 0.00, 0.00, 0.00, 10:59:11.859
99, 458.48, 0.00, 0.00, -187500.02, 0.00, 0.00, 0.00, 0.00, 0.00, 0.00, 0.00, 10:59:11.863
100, 550.43, 0.00, 0.00, -187500.02, 0.00, 0.00, 0.00, 0.00, 0.00, 0.00, 0.00, 10:59:11.868
101, 546.54, 0.00, 0.00, -187500.02, 0.00, 0.00, 0.00, 0.00, 0.00, 0.00, 0.00, 10:59:11.877
102, 485.06, 0.00, 0.00, -187500.02, 0.00, 0.00, 0.00, 0.00, 0.00, 0.00, 0.00, 10:59:11.877
103, 501.22, 0.00, 0.00, -187500.02, 0.00, 0.00, 0.00, 0.00, 0.00, 0.00, 0.00, 10:59:11.878
104, 580.18, 0.00, 0.00, -187500.02, 0.00, 0.00, 0.00, 0.00, 0.74, -0.07, 0.66, 10:59:11.883
105, 564.90, 0.00, 0.00, -187500.02, 0.00, 0.00, 0.00, 0.00, 0.00, 0.00, 0.00, 10:59:11.887
106, 494.89, 0.00, 0.00, -187500.02, 0.00, 0.00, 0.00, 0.00, 0.00, 0.00, 0.00, 10:59:11.892
107, 486.84, 0.00, 0.00, -187500.02, 0.00, 0.00, 0.00, 0.00, 0.00, 0.00, 0.00, 10:59:11.895
108, 569.48, 0.00, 0.00, -187500.02, 0.00, 0.00, 0.00, 0.00, 0.00, 0.00, 0.00, 10:59:11.899
109, 604.79, 0.00, 0.00, -187500.02, 0.00, 0.00, 0.00, 0.00, 0.00, 0.00, 0.00, 10:59:11.902
110, 550.28, 0.00, 0.00, -187500.02, 0.00, 0.00, 0.00, 0.00, 0.00, 0.00, 0.00, 10:59:11.906
111, 522.63, 0.00, 0.00, -187500.02, 0.00, 0.00, 0.00, 0.00, 0.00, 0.00, 0.00, 10:59:11.910
112, 603.45, 0.00, 0.00, -187500.02, 0.00, 0.00, 0.00, 0.00, 0.00, 0.00, 0.00, 10:59:11.915
113, 652.13, 0.00, 0.00, -187500.02, 0.00, 0.00, 0.00, 0.00, 0.00, 0.00, 0.00, 10:59:11.919
114, 574.69, 0.00, 0.00, -187500.02, 0.00, 0.00, 0.00, 0.00, 0.76, -0.06, 0.66, 10:59:11.924
115, 496.88, 0.00, 0.00, -187500.02, 0.00, 0.00, 0.00, 0.00, 0.00, 0.00, 0.00, 10:59:11.928
116, 547.22, 0.00, 0.00, -187500.02, 0.00, 0.00, 0.00, 0.00, 0.00, 0.00, 0.00, 10:59:11.930
117, 622.16, 0.00, 0.00, -187500.02, 0.00, 0.00, 0.00, 0.00, 0.00, 0.00, 0.00, 10:59:11.934
118, 588.16, 0.00, 0.00, -187500.02, 0.00, 0.00, 0.00, 0.00, 0.00, 0.00, 0.00, 10:59:11.939
119, 532.73, 0.00, 0.00, -187500.02, 0.00, 0.00, 0.00, 0.00, 0.00, 0.00, 0.00, 10:59:11.943
120, 577.32, 0.00, 0.00, -187500.02, 0.00, 0.00, 0.00, 0.00, 0.00, 0.00, 0.00, 10:59:11.947
121, 651.49, 0.00, 0.00, -187500.02, 0.00, 0.00, 0.00, 0.00, 0.00, 0.00, 0.00, 10:59:11.951
122, 626.50, 0.00, 0.00, -187500.02, 0.00, 0.00, 0.00, 0.00, 0.00, 0.00, 0.00, 10:59:11.955
123, 557.88, 0.00, 0.00, -187500.02, 0.00, 0.00, 0.00, 0.00, 0.75, -0.07, 0.66, 10:59:11.959
124, 585.15, 0.00, 0.00, -187500.02, 0.00, 0.00, 0.00, 0.00, 0.00, 0.00, 0.00, 10:59:11.962
125, 670.08, 0.00, 0.00, -187500.02, 0.00, 0.00, 0.00, 0.00, 0.00, 0.00, 0.00, 10:59:11.966
126, 637.23, 0.00, 0.00, -187500.02, 0.00, 0.00, 0.00, 0.00, 0.00, 0.00, 0.00, 10:59:11.971
127, 537.09, 0.00, 0.00, -187500.02, 0.00, 0.00, 0.00, 0.00, 0.00, 0.00, 0.00, 10:59:11.975
128, 545.23, 0.00, 0.00, -187500.02, 0.00, 0.00, 0.00, 0.00, 0.00, 0.00, 0.00, 10:59:11.979
129, 640.98, 0.00, 0.00, -187500.02, 0.00, 0.00, 0.00, 0.00, 0.00, 0.00, 0.00, 10:59:11.986
130, 645.76, 0.00, 0.00, -187500.02, 0.00, 0.00, 0.00, 0.00, 0.00, 0.00, 0.00, 10:59:11.986
131, 572.23, 0.00, 0.00, -187500.02, 0.00, 0.00, 0.00, 0.00, 0.00, 0.00, 0.00, 10:59:11.990
132, 558.44, 0.00, 0.00, -187500.02, 0.00, 0.00, 0.00, 0.00, 0.00, 0.00, 0.00, 10:59:11.995
133, 641.00, 0.00, 0.00, -187500.02, 0.00, 0.00, 0.00, 0.00, 0.75, -0.07, 0.66, 10:59:12.000
134, 686.94, 0.00, 0.00, -187500.02, 0.00, 0.00, 0.00, 0.00, 0.00, 0.00, 0.00, 10:59:12.004
135, 619.68, 0.00, 0.00, -187500.02, 0.00, 0.00, 0.00, 0.00, 0.00, 0.00, 0.00, 10:59:12.006
136, 583.25, 0.00, 0.00, -187500.02, 0.00, 0.00, 0.00, 0.00, 0.00, 0.00, 0.00, 10:59:12.011
137, 666.01, 0.00, 0.00, -187500.02, 0.00, 0.00, 0.00, 0.00, 0.00, 0.00, 0.00, 10:59:12.015
138, 729.43, 0.00, 0.00, -187500.02, 0.00, 0.00, 0.00, 0.00, 0.00, 0.00, 0.00, 10:59:12.019
139, 658.01, 0.00, 0.00, -187500.02, 0.00, 0.00, 0.00, 0.00, 0.00, 0.00, 0.00, 10:59:12.023
140, 580.94, 0.00, 0.00, -187500.02, 0.00, 0.00, 0.00, 0.00, 0.00, 0.00, 0.00, 10:59:12.028
141, 640.78, 0.00, 0.00, -187500.02, 0.00, 0.00, 0.00, 0.00, 0.00, 0.00, 0.00, 10:59:12.032
142, 713.04, 0.00, 0.00, -187500.02, 0.00, 0.00, 0.00, 0.00, 0.00, 0.00, 0.00, 10:59:12.037
143, 673.26, 0.00, 0.00, -187500.02, 0.00, 0.00, 0.00, 0.00, 0.76, -0.06, 0.67, 10:59:12.039
144, 614.00, 0.00, 0.00, -187500.02, 0.00, 0.00, 0.00, 0.00, 0.00, 0.00, 0.00, 10:59:12.050
145, 647.82, 0.00, 0.00, -187500.02, 0.00, 0.00, 0.00, 0.00, 0.00, 0.00, 0.00, 10:59:12.050
146, 733.99, 0.00, 0.00, -187500.02, 0.00, 0.00, 0.00, 0.00, 0.00, 0.00, 0.00, 10:59:12.051
147, 705.51, 0.00, 0.00, -187500.02, 0.00, 0.00, 0.00, 0.00, 0.00, 0.00, 0.00, 10:59:12.055
148, 639.19, 0.00, 0.00, -187500.02, 0.00, 0.00, 0.00, 0.00, 0.00, 0.00, 0.00, 10:59:12.060
149, 658.91, 0.00, 0.00, -187500.02, 0.00, 0.00, 0.00, 0.00, 0.00, 0.00, 0.00, 10:59:12.063
150, 736.69, 0.00, 0.00, -187500.02, 0.00, 0.00, 0.00, 0.00, 0.00, 0.00, 0.00, 10:59:12.067
151, 695.61, 0.00, 0.00, -187500.02, 0.00, 0.00, 0.00, 0.00, 0.00, 0.00, 0.00, 10:59:12.070
152, 599.29, 0.00, 0.00, -187500.02, 0.00, 0.00, 0.00, 0.00, 0.00, 0.00, 0.00, 10:59:12.074
153, 608.84, 0.00, 0.00, -187500.02, 0.00, 0.00, 0.00, 0.00, 0.75, -0.07, 0.67, 10:59:12.079
154, 700.70, 0.00, 0.00, -187500.02, 0.00, 0.00, 0.00, 0.00, 0.00, 0.00, 0.00, 10:59:12.082
155, 724.55, 0.00, 0.00, -187500.02, 0.00, 0.00, 0.00, 0.00, 0.00, 0.00, 0.00, 10:59:12.087
156, 664.92, 0.00, 0.00, -187500.02, 0.00, 0.00, 0.00, 0.00, 0.00, 0.00, 0.00, 10:59:12.091
157, 637.00, 0.00, 0.00, -187500.02, 0.00, 0.00, 0.00, 0.00, 0.00, 0.00, 0.00, 10:59:12.095
158, 723.91, 0.00, 0.00, -187500.02, 0.00, 0.00, 0.00, 0.00, 0.00, 0.00, 0.00, 10:59:12.099
159, 765.68, 0.00, 0.00, -187500.02, 0.00, 0.00, 0.00, 0.00, 0.00, 0.00, 0.00, 10:59:12.103
160, 661.30, 0.00, 0.00, -187500.02, 0.00, 0.00, 0.00, 0.00, 0.00, 0.00, 0.00, 10:59:12.106
161, 600.59, 0.00, 0.00, -187500.02, 0.00, 0.00, 0.00, 0.00, 0.00, 0.00, 0.00, 10:59:12.112
162, 670.84, 0.00, 0.00, -187500.02, 0.00, 0.00, 0.00, 0.00, 0.00, 0.00, 0.00, 10:59:12.115
163, 726.68, 0.00, 0.00, -187500.02, 0.00, 0.00, 0.00, 0.00, 0.75, -0.05, 0.67, 10:59:12.117
164, 667.96, 0.00, 0.00, -187500.02, 0.00, 0.00, 0.00, 0.00, 0.00, 0.00, 0.00, 10:59:12.122
165, 614.74, 0.00, 0.00, -187500.02, 0.00, 0.00, 0.00, 0.00, 0.00, 0.00, 0.00, 10:59:12.126
166, 674.13, 0.00, 0.00, -187500.02, 0.00, 0.00, 0.00, 0.00, 0.00, 0.00, 0.00, 10:59:12.131
167, 742.28, 0.00, 0.00, -187500.02, 0.00, 0.00, 0.00, 0.00, 0.00, 0.00, 0.00, 10:59:12.137
168, 699.23, 0.00, 0.00, -187500.02, 0.00, 0.00, 0.00, 0.00, 0.00, 0.00, 0.00, 10:59:12.140
169, 626.90, 0.00, 0.00, -187500.02, 0.00, 0.00, 0.00, 0.00, 0.00, 0.00, 0.00, 10:59:12.142
170, 632.60, 0.00, 0.00, -187500.02, 0.00, 0.00, 0.00, 0.00, 0.00, 0.00, 0.00, 10:59:12.146
171, 710.09, 0.00, 0.00, -187500.02, 0.00, 0.00, 0.00, 0.00, 0.00, 0.00, 0.00, 10:59:12.151
172, 682.71, 0.00, 0.00, -187500.02, 0.00, 0.00, 0.00, 0.00, 0.75, -0.06, 0.67, 10:59:12.154
173, 608.17, 0.00, 0.00, -187500.02, 0.00, 0.00, 0.00, 0.00, 0.00, 0.00, 0.00, 10:59:12.159
174, 609.26, 0.00, 0.00, -187500.02, 0.00, 0.00, 0.00, 0.00, 0.00, 0.00, 0.00, 10:59:12.163
175, 698.92, 0.00, 0.00, -187500.02, 0.00, 0.00, 0.00, 0.00, 0.00, 0.00, 0.00, 10:59:12.168
176, 704.30, 0.00, 0.00, -187500.02, 0.00, 0.00, 0.00, 0.00, 0.00, 0.00, 0.00, 10:59:12.171
177, 627.77, 0.00, 0.00, -187500.02, 0.00, 0.00, 0.00, 0.00, 0.00, 0.00, 0.00, 10:59:12.174
178, 606.81, 0.00, 0.00, -187500.02, 0.00, 0.00, 0.00, 0.00, 0.00, 0.00, 0.00, 10:59:12.179
179, 655.20, 0.00, 0.00, -187500.02, 0.00, 0.00, 0.00, 0.00, 0.00, 0.00, 0.00, 10:59:12.183
180, 668.88, 0.00, 0.00, -187500.02, 0.00, 0.00, 0.00, 0.00, 0.00, 0.00, 0.00, 10:59:12.186
181, 602.00, 0.00, 0.00, -187500.02, 0.00, 0.00, 0.00, 0.00, 0.00, 0.00, 0.00, 10:59:12.191
182, 582.17, 0.00, 0.00, -187500.02, 0.00, 0.00, 0.00, 0.00, 0.75, -0.07, 0.67, 10:59:12.195
183, 663.33, 0.00, 0.00, -187500.02, 0.00, 0.00, 0.00, 0.00, 0.00, 0.00, 0.00, 10:59:12.199
184, 700.03, 0.00, 0.00, -187500.02, 0.00, 0.00, 0.00, 0.00, 0.00, 0.00, 0.00, 10:59:12.202
185, 622.90, 0.00, 0.00, -187500.02, 0.00, 0.00, 0.00, 0.00, 0.00, 0.00, 0.00, 10:59:12.207
186, 577.41, 0.00, 0.00, -187500.02, 0.00, 0.00, 0.00, 0.00, 0.00, 0.00, 0.00, 10:59:12.211
187, 638.10, 0.00, 0.00, -187500.02, 0.00, 0.00, 0.00, 0.00, 0.00, 0.00, 0.00, 10:59:12.215
188, 663.20, 0.00, 0.00, -187500.02, 0.00, 0.00, 0.00, 0.00, 0.00, 0.00, 0.00, 10:59:12.218
189, 603.25, 0.00, 0.00, -187500.02, 0.00, 0.00, 0.00, 0.00, 0.00, 0.00, 0.00, 10:59:12.223
190, 553.07, 0.00, 0.00, -187500.02, 0.00, 0.00, 0.00, 0.00, 0.00, 0.00, 0.00, 10:59:12.226
191, 612.88, 0.00, 0.00, -187500.02, 0.00, 0.00, 0.00, 0.00, 0.00, 0.00, 0.00, 10:59:12.230
192, 693.44, 0.00, 0.00, -187500.02, 0.00, 0.00, 0.00, 0.00, 0.75, -0.06, 0.67, 10:59:12.234
193, 658.46, 0.00, 0.00, -187500.02, 0.00, 0.00, 0.00, 0.00, 0.00, 0.00, 0.00, 10:59:12.239
194, 575.07, 0.00, 0.00, -187500.02, 0.00, 0.00, 0.00, 0.00, 0.00, 0.00, 0.00, 10:59:12.243
195, 574.89, 0.00, 0.00, -187500.02, 0.00, 0.00, 0.00, 0.00, 0.00, 0.00, 0.00, 10:59:12.246
196, 643.62, 0.00, 0.00, -187500.02, 0.00, 0.00, 0.00, 0.00, 0.00, 0.00, 0.00, 10:59:12.250
197, 629.09, 0.00, 0.00, -187500.02, 0.00, 0.00, 0.00, 0.00, 0.00, 0.00, 0.00, 10:59:12.254
198, 563.15, 0.00, 0.00, -187500.02, 0.00, 0.00, 0.00, 0.00, 0.00, 0.00, 0.00, 10:59:12.258
199, 570.73, 0.00, 0.00, -187500.02, 0.00, 0.00, 0.00, 0.00, 0.00, 0.00, 0.00, 10:59:12.261
200, 649.47, 0.00, 0.00, -187500.02, 0.00, 0.00, 0.00, 0.00, 0.00, 0.00, 0.00, 10:59:12.266
201, 650.50, 0.00, 0.00, -187500.02, 0.00, 0.00, 0.00, 0.00, 0.00, 0.00, 0.00, 10:59:12.271
202, 574.69, 0.00, 0.00, -187500.02, 0.00, 0.00, 0.00, 0.00, 0.76, -0.06, 0.66, 10:59:12.275
203, 562.82, 0.00, 0.00, -187500.02, 0.00, 0.00, 0.00, 0.00, 0.00, 0.00, 0.00, 10:59:12.277
204, 639.66, 0.00, 0.00, -187500.02, 0.00, 0.00, 0.00, 0.00, 0.00, 0.00, 0.00, 10:59:12.282
205, 617.49, 0.00, 0.00, -187500.02, 0.00, 0.00, 0.00, 0.00, 0.00, 0.00, 0.00, 10:59:12.286
206, 527.41, 0.00, 0.00, -187500.02, 0.00, 0.00, 0.00, 0.00, 0.00, 0.00, 0.00, 10:59:12.290
207, 507.52, 0.00, 0.00, -187500.02, 0.00, 0.00, 0.00, 0.00, 0.00, 0.00, 0.00, 10:59:12.295
208, 581.61, 0.00, 0.00, -187500.02, 0.00, 0.00, 0.00, 0.00, 0.00, 0.00, 0.00, 10:59:12.298
209, 609.38, 0.00, 0.00, -187500.02, 0.00, 0.00, 0.00, 0.00, 0.00, 0.00, 0.00, 10:59:12.302
210, 511.05, 0.00, 0.00, -187500.02, 0.00, 0.00, 0.00, 0.00, 0.00, 0.00, 0.00, 10:59:12.306
211, 423.92, 0.00, 0.00, -187500.02, 0.00, 0.00, 0.00, 0.00, 0.00, 0.00, 0.00, 10:59:12.311
212, 460.36, 0.00, 0.00, -187500.02, 0.00, 0.00, 0.00, 0.00, 0.75, -0.07, 0.66, 10:59:12.315
213, 503.41, 0.00, 0.00, -187500.02, 0.00, 0.00, 0.00, 0.00, 0.00, 0.00, 0.00, 10:59:12.318
214, 400.52, 0.00, 0.00, -187500.02, 0.00, 0.00, 0.00, 0.00, 0.00, 0.00, 0.00, 10:59:12.323
215, 298.37, 0.00, 0.00, -187500.02, 0.00, 0.00, 0.00, 0.00, 0.00, 0.00, 0.00, 10:59:12.326
216, 345.42, 0.00, 0.00, -187500.02, 0.00, 0.00, 0.00, 0.00, 0.00, 0.00, 0.00, 10:59:12.331
217, 425.49, 0.00, 0.00, -187500.02, 0.00, 0.00, 0.00, 0.00, 0.00, 0.00, 0.00, 10:59:12.334
218, 398.20, 0.00, 0.00, -187500.02, 0.00, 0.00, 0.00, 0.00, 0.00, 0.00, 0.00, 10:59:12.337
219, 337.71, 0.00, 0.00, -187500.02, 0.00, 0.00, 0.00, 0.00, 0.00, 0.00, 0.00, 10:59:12.342
220, 361.27, 0.00, 0.00, -187500.02, 0.00, 0.00, 0.00, 0.00, 0.00, 0.00, 0.00, 10:59:12.346
221, 445.98, 0.00, 0.00, -187500.02, 0.00, 0.00, 0.00, 0.00, 0.75, -0.06, 0.66, 10:59:12.351
222, 435.39, 0.00, 0.00, -187500.02, 0.00, 0.00, 0.00, 0.00, 0.00, 0.00, 0.00, 10:59:12.355
223, 360.98, 0.00, 0.00, -187500.02, 0.00, 0.00, 0.00, 0.00, 0.00, 0.00, 0.00, 10:59:12.358
224, 348.78, 0.00, 0.00, -187500.02, 0.00, 0.00, 0.00, 0.00, 0.00, 0.00, 0.00, 10:59:12.363
225, 422.14, 0.00, 0.00, -187500.02, 0.00, 0.00, 0.00, 0.00, 0.00, 0.00, 0.00, 10:59:12.367
226, 429.94, 0.00, 0.00, -187500.02, 0.00, 0.00, 0.00, 0.00, 0.00, 0.00, 0.00, 10:59:12.370
227, 350.90, 0.00, 0.00, -187500.02, 0.00, 0.00, 0.00, 0.00, 0.00, 0.00, 0.00, 10:59:12.374
228, 340.48, 0.00, 0.00, -187500.02, 0.00, 0.00, 0.00, 0.00, 0.00, 0.00, 0.00, 10:59:12.378
229, 429.58, 0.00, 0.00, -187500.02, 0.00, 0.00, 0.00, 0.00, 0.00, 0.00, 0.00, 10:59:12.383
230, 467.96, 0.00, 0.00, -187500.02, 0.00, 0.00, 0.00, 0.00, 0.00, 0.00, 0.00, 10:59:12.386
231, 393.86, 0.00, 0.00, -187500.02, 0.00, 0.00, 0.00, 0.00, 0.76, -0.06, 0.66, 10:59:12.390
232, 334.45, 0.00, 0.00, -187500.02, 0.00, 0.00, 0.00, 0.00, 0.00, 0.00, 0.00, 10:59:12.394
233, 391.71, 0.00, 0.00, -187500.02, 0.00, 0.00, 0.00, 0.00, 0.00, 0.00, 0.00, 10:59:12.398
234, 444.35, 0.00, 0.00, -187500.02, 0.00, 0.00, 0.00, 0.00, 0.00, 0.00, 0.00, 10:59:12.402
235, 385.55, 0.00, 0.00, -187500.02, 0.00, 0.00, 0.00, 0.00, 0.00, 0.00, 0.00, 10:59:12.409
236, 345.13, 0.00, 0.00, -187500.02, 0.00, 0.00, 0.00, 0.00, 0.00, 0.00, 0.00, 10:59:12.411
237, 407.49, 0.00, 0.00, -187500.02, 0.00, 0.00, 0.00, 0.00, 0.00, 0.00, 0.00, 10:59:12.414
238, 466.26, 0.00, 0.00, -187500.02, 0.00, 0.00, 0.00, 0.00, 0.00, 0.00, 0.00, 10:59:12.418
239, 418.45, 0.00, 0.00, -187500.02, 0.00, 0.00, 0.00, 0.00, 0.00, 0.00, 0.00, 10:59:12.422
240, 344.84, 0.00, 0.00, -187500.02, 0.00, 0.00, 0.00, 0.00, 0.00, 0.00, 0.00, 10:59:12.427
241, 358.63, 0.00, 0.00, -187500.02, 0.00, 0.00, 0.00, 0.00, 0.76, -0.06, 0.66, 10:59:12.430
242, 444.98, 0.00, 0.00, -187500.02, 0.00, 0.00, 0.00, 0.00, 0.00, 0.00, 0.00, 10:59:12.434
243, 424.46, 0.00, 0.00, -187500.02, 0.00, 0.00, 0.00, 0.00, 0.00, 0.00, 0.00, 10:59:12.441
244, 340.95, 0.00, 0.00, -187500.02, 0.00, 0.00, 0.00, 0.00, 0.00, 0.00, 0.00, 10:59:12.442
245, 360.29, 0.00, 0.00, -187500.02, 0.00, 0.00, 0.00, 0.00, 0.00, 0.00, 0.00, 10:59:12.446
246, 446.57, 0.00, 0.00, -187500.02, 0.00, 0.00, 0.00, 0.00, 0.00, 0.00, 0.00, 10:59:12.450
247, 424.97, 0.00, 0.00, -187500.02, 0.00, 0.00, 0.00, 0.00, 0.00, 0.00, 0.00, 10:59:12.455
248, 341.07, 0.00, 0.00, -187500.02, 0.00, 0.00, 0.00, 0.00, 0.00, 0.00, 0.00, 10:59:12.458
249, 339.32, 0.00, 0.00, -187500.02, 0.00, 0.00, 0.00, 0.00, 0.00, 0.00, 0.00, 10:59:12.462
250, 402.80, 0.00, 0.00, -187500.02, 0.00, 0.00, 0.00, 0.00, 0.00, 0.00, 0.00, 10:59:12.469
251, 393.03, 0.00, 0.00, -187500.02, 0.00, 0.00, 0.00, 0.00, 0.76, -0.06, 0.66, 10:59:12.470
252, 321.19, 0.00, 0.00, -187500.02, 0.00, 0.00, 0.00, 0.00, 0.00, 0.00, 0.00, 10:59:12.474
253, 304.81, 0.00, 0.00, -187500.02, 0.00, 0.00, 0.00, 0.00, 0.00, 0.00, 0.00, 10:59:12.478
254, 393.08, 0.00, 0.00, -187500.02, 0.00, 0.00, 0.00, 0.00, 0.00, 0.00, 0.00, 10:59:12.482
255, 431.75, 0.00, 0.00, -187500.02, 0.00, 0.00, 0.00, 0.00, 0.00, 0.00, 0.00, 10:59:12.487
0, 362.39, 0.00, 0.00, -187500.02, 0.00, 0.00, 0.00, 0.00, 0.00, 0.00, 0.00, 10:59:12.491
1, 316.01, 0.00, 0.00, -187500.02, 0.00, 0.00, 0.00, 0.00, 0.00, 0.00, 0.00, 10:59:12.494
2, 357.14, 0.00, 0.00, -187500.02, 0.00, 0.00, 0.00, 0.00, 0.00, 0.00, 0.00, 10:59:12.497
3, 391.13, 0.00, 0.00, -187500.02, 0.00, 0.00, 0.00, 0.00, 0.00, 0.00, 0.00, 10:59:12.507
4, 327.65, 0.00, 0.00, -187500.02, 0.00, 0.00, 0.00, 0.00, 0.00, 0.00, 0.00, 10:59:12.507
5, 281.05, 0.00, 0.00, -187500.02, 0.00, 0.00, 0.00, 0.00, 0.75, -0.07, 0.67, 10:59:12.510
6, 350.21, 0.00, 0.00, -187500.02, 0.00, 0.00, 0.00, 0.00, 0.00, 0.00, 0.00, 10:59:12.514
7, 422.58, 0.00, 0.00, -187500.02, 0.00, 0.00, 0.00, 0.00, 0.00, 0.00, 0.00, 10:59:12.518
8, 386.75, 0.00, 0.00, -187500.02, 0.00, 0.00, 0.00, 0.00, 0.00, 0.00, 0.00, 10:59:12.522
9, 325.08, 0.00, 0.00, -187500.02, 0.00, 0.00, 0.00, 0.00, 0.00, 0.00, 0.00, 10:59:12.525
10, 361.81, 0.00, 0.00, -187500.02, 0.00, 0.00, 0.00, 0.00, 0.00, 0.00, 0.00, 10:59:12.530
11, 411.05, 0.00, 0.00, -187500.02, 0.00, 0.00, 0.00, 0.00, 0.00, 0.00, 0.00, 10:59:12.536
12, 372.38, 0.00, 0.00, -187500.02, 0.00, 0.00, 0.00, 0.00, 0.00, 0.00, 0.00, 10:59:12.538
13, 310.33, 0.00, 0.00, -187500.02, 0.00, 0.00, 0.00, 0.00, 0.00, 0.00, 0.00, 10:59:12.542
14, 330.76, 0.00, 0.00, -187500.02, 0.00, 0.00, 0.00, 0.00, 0.76, -0.06, 0.65, 10:59:12.549
15, 415.43, 0.00, 0.00, -187500.02, 0.00, 0.00, 0.00, 0.00, 0.00, 0.00, 0.00, 10:59:12.550
16, 404.88, 0.00, 0.00, -187500.02, 0.00, 0.00, 0.00, 0.00, 0.00, 0.00, 0.00, 10:59:12.553
17, 330.22, 0.00, 0.00, -187500.02, 0.00, 0.00, 0.00, 0.00, 0.00, 0.00, 0.00, 10:59:12.557
18, 326.87, 0.00, 0.00, -187500.02, 0.00, 0.00, 0.00, 0.00, 0.00, 0.00, 0.00, 10:59:12.562
19, 413.40, 0.00, 0.00, -187500.02, 0.00, 0.00, 0.00, 0.00, 0.00, 0.00, 0.00, 10:59:12.566
20, 415.81, 0.00, 0.00, -187500.02, 0.00, 0.00, 0.00, 0.00, 0.00, 0.00, 0.00, 10:59:12.570
21, 307.18, 0.00, 0.00, -187500.02, 0.00, 0.00, 0.00, 0.00, 0.00, 0.00, 0.00, 10:59:12.574
22, 266.75, 0.00, 0.00, -187500.02, 0.00, 0.00, 0.00, 0.00, 0.00, 0.00, 0.00, 10:59:12.578
23, 352.42, 0.00, 0.00, -187500.02, 0.00, 0.00, 0.00, 0.00, 0.00, 0.00, 0.00, 10:59:12.581
24, 393.08, 0.00, 0.00, -187500.02, 0.00, 0.00, 0.00, 0.00, 0.76, -0.06, 0.66, 10:59:12.586
25, 321.06, 0.00, 0.00, -187500.02, 0.00, 0.00, 0.00, 0.00, 0.00, 0.00, 0.00, 10:59:12.591
26, 290.80, 0.00, 0.00, -187500.02, 0.00, 0.00, 0.00, 0.00, 0.00, 0.00, 0.00, 10:59:12.594
27, 371.98, 0.00, 0.00, -187500.02, 0.00, 0.00, 0.00, 0.00, 0.00, 0.00, 0.00, 10:59:12.598
28, 425.62, 0.00, 0.00, -187500.02, 0.00, 0.00, 0.00, 0.00, 0.00, 0.00, 0.00, 10:59:12.601
29, 356.62, 0.00, 0.00, -187500.02, 0.00, 0.00, 0.00, 0.00, 0.00, 0.00, 0.00, 10:59:12.605
30, 274.95, 0.00, 0.00, -187500.02, 0.00, 0.00, 0.00, 0.00, 0.00, 0.00, 0.00, 10:59:12.610
31, 298.11, 0.00, 0.00, -187500.02, 0.00, 0.00, 0.00, 0.00, 0.00, 0.00, 0.00, 10:59:12.613
32, 372.07, 0.00, 0.00, -187500.02, 0.00, 0.00, 0.00, 0.00, 0.00, 0.00, 0.00, 10:59:12.617
33, 331.41, 0.00, 0.00, -187500.02, 0.00, 0.00, 0.00, 0.00, 0.00, 0.00, 0.00, 10:59:12.623
34, 260.24, 0.00, 0.00, -187500.02, 0.00, 0.00, 0.00, 0.00, 0.76, -0.07, 0.66, 10:59:12.626
35, 288.92, 0.00, 0.00, -187500.02, 0.00, 0.00, 0.00, 0.00, 0.00, 0.00, 0.00, 10:59:12.629
36, 363.33, 0.00, 0.00, -187500.02, 0.00, 0.00, 0.00, 0.00, 0.00, 0.00, 0.00, 10:59:12.634
37, 328.53, 0.00, 0.00, -187500.02, 0.00, 0.00, 0.00, 0.00, 0.00, 0.00, 0.00, 10:59:12.642
38, 238.78, 0.00, 0.00, -187500.02, 0.00, 0.00, 0.00, 0.00, 0.00, 0.00, 0.00, 10:59:12.642
39, 223.38, 0.00, 0.00, -187500.02, 0.00, 0.00, 0.00, 0.00, 0.00, 0.00, 0.00, 10:59:12.646
40, 305.75, 0.00, 0.00, -187500.02, 0.00, 0.00, 0.00, 0.00, 0.00, 0.00, 0.00, 10:59:12.650
41, 302.64, 0.00, 0.00, -187500.02, 0.00, 0.00, 0.00, 0.00, 0.00, 0.00, 0.00, 10:59:12.655
42, 227.54, 0.00, 0.00, -187500.02, 0.00, 0.00, 0.00, 0.00, 0.00, 0.00, 0.00, 10:59:12.657
43, 227.52, 0.00, 0.00, -187500.02, 0.00, 0.00, 0.00, 0.00, 0.00, 0.00, 0.00, 10:59:12.661
44, 293.39, 0.00, 0.00, -187500.02, 0.00, 0.00, 0.00, 0.00, 0.76, -0.07, 0.66, 10:59:12.665
45, 309.04, 0.00, 0.00, -187500.02, 0.00, 0.00, 0.00, 0.00, 0.00, 0.00, 0.00, 10:59:12.670
46, 246.52, 0.00, 0.00, -187500.02, 0.00, 0.00, 0.00, 0.00, 0.00, 0.00, 0.00, 10:59:12.673
47, 219.00, 0.00, 0.00, -187500.02, 0.00, 0.00, 0.00, 0.00, 0.00, 0.00, 0.00, 10:59:12.678
48, 270.55, 0.00, 0.00, -187500.02, 0.00, 0.00, 0.00, 0.00, 0.00, 0.00, 0.00, 10:59:12.682
49, 294.44, 0.00, 0.00, -187500.02, 0.00, 0.00, 0.00, 0.00, 0.00, 0.00, 0.00, 10:59:12.686
50, 238.07, 0.00, 0.00, -187500.02, 0.00, 0.00, 0.00, 0.00, 0.00, 0.00, 0.00, 10:59:12.690
51, 214.98, 0.00, 0.00, -187500.02, 0.00, 0.00, 0.00, 0.00, 0.00, 0.00, 0.00, 10:59:12.693
52, 286.37, 0.00, 0.00, -187500.02, 0.00, 0.00, 0.00, 0.00, 0.00, 0.00, 0.00, 10:59:12.697
53, 343.73, 0.00, 0.00, -187500.02, 0.00, 0.00, 0.00, 0.00, 0.75, -0.07, 0.66, 10:59:12.702
54, 283.33, 0.00, 0.00, -187500.02, 0.00, 0.00, 0.00, 0.00, 0.00, 0.00, 0.00, 10:59:12.707
55, 214.58, 0.00, 0.00, -187500.02, 0.00, 0.00, 0.00, 0.00, 0.00, 0.00, 0.00, 10:59:12.711
56, 247.84, 0.00, 0.00, -187500.02, 0.00, 0.00, 0.00, 0.00, 0.00, 0.00, 0.00, 10:59:12.713
57, 288.94, 0.00, 0.00, -187500.02, 0.00, 0.00, 0.00, 0.00, 0.00, 0.00, 0.00, 10:59:12.718
58, 239.74, 0.00, 0.00, -187500.02, 0.00, 0.00, 0.00, 0.00, 0.00, 0.00, 0.00, 10:59:12.722
59, 191.40, 0.00, 0.00, -187500.02, 0.00, 0.00, 0.00, 0.00, 0.00, 0.00, 0.00, 10:59:12.726
60, 235.16, 0.00, 0.00, -187500.02, 0.00, 0.00, 0.00, 0.00, 0.00, 0.00, 0.00, 10:59:12.729
61, 324.90, 0.00, 0.00, -187500.02, 0.00, 0.00, 0.00, 0.00, 0.00, 0.00, 0.00, 10:59:12.734
62, 313.42, 0.00, 0.00, -187500.02, 0.00, 0.00, 0.00, 0.00, 0.00, 0.00, 0.00, 10:59:12.740
63, 237.55, 0.00, 0.00, -187500.02, 0.00, 0.00, 0.00, 0.00, 0.76, -0.05, 0.66, 10:59:12.740
64, 236.91, 0.00, 0.00, -187500.02, 0.00, 0.00, 0.00, 0.00, 0.00, 0.00, 0.00, 10:59:12.745
65, 301.57, 0.00, 0.00, -187500.02, 0.00, 0.00, 0.00, 0.00, 0.00, 0.00, 0.00, 10:59:12.749
66, 296.65, 0.00, 0.00, -187500.02, 0.00, 0.00, 0.00, 0.00, 0.00, 0.00, 0.00, 10:59:12.754
67, 220.99, 0.00, 0.00, -187500.02, 0.00, 0.00, 0.00, 0.00, 0.00, 0.00, 0.00, 10:59:12.758
68, 201.81, 0.00, 0.00, -187500.02, 0.00, 0.00, 0.00, 0.00, 0.00, 0.00, 0.00, 10:59:12.763
69, 281.99, 0.00, 0.00, -187500.02, 0.00, 0.00, 0.00, 0.00, 0.00, 0.00, 0.00, 10:59:12.765
70, 307.25, 0.00, 0.00, -187500.02, 0.00, 0.00, 0.00, 0.00, 0.00, 0.00, 0.00, 10:59:12.769
71, 227.97, 0.00, 0.00, -187500.02, 0.00, 0.00, 0.00, 0.00, 0.00, 0.00, 0.00, 10:59:12.775
72, 169.34, 0.00, 0.00, -187500.02, 0.00, 0.00, 0.00, 0.00, 0.00, 0.00, 0.00, 10:59:12.777
73, 223.65, 0.00, 0.00, -187500.02, 0.00, 0.00, 0.00, 0.00, 0.76, -0.08, 0.66, 10:59:12.781
74, 276.11, 0.00, 0.00, -187500.02, 0.00, 0.00, 0.00, 0.00, 0.00, 0.00, 0.00, 10:59:12.786
75, 216.19, 0.00, 0.00, -187500.02, 0.00, 0.00, 0.00, 0.00, 0.00, 0.00, 0.00, 10:59:12.791
76, 174.75, 0.00, 0.00, -187500.02, 0.00, 0.00, 0.00, 0.00, 0.00, 0.00, 0.00, 10:59:12.793
77, 232.99, 0.00, 0.00, -187500.02, 0.00, 0.00, 0.00, 0.00, 0.00, 0.00, 0.00, 10:59:12.797
78, 289.86, 0.00, 0.00, -187500.02, 0.00, 0.00, 0.00, 0.00, 0.00, 0.00, 0.00, 10:59:12.802
79, 212.48, 0.00, 0.00, -187500.02, 0.00, 0.00, 0.00, 0.00, 0.00, 0.00, 0.00, 10:59:12.806
80, 124.19, 0.00, 0.00, -187500.02, 0.00, 0.00, 0.00, 0.00, 0.00, 0.00, 0.00, 10:59:12.810
81, 173.14, 0.00, 0.00, -187500.02, 0.00, 0.00, 0.00, 0.00, 0.00, 0.00, 0.00, 10:59:12.813
82, 246.34, 0.00, 0.00, -187500.02, 0.00, 0.00, 0.00, 0.00, 0.00, 0.00, 0.00, 10:59:12.818
83, 206.40, 0.00, 0.00, -187500.02, 0.00, 0.00, 0.00, 0.00, 0.76, -0.05, 0.66, 10:59:12.822
84, 146.05, 0.00, 0.00, -187500.02, 0.00, 0.00, 0.00, 0.00, 0.00, 0.00, 0.00, 10:59:12.824
85, 177.18, 0.00, 0.00, -187500.02, 0.00, 0.00, 0.00, 0.00, 0.00, 0.00, 0.00, 10:59:12.830
86, 252.46, 0.00, 0.00, -187500.02, 0.00, 0.00, 0.00, 0.00, 0.00, 0.00, 0.00, 10:59:12.834
87, 229.31, 0.00, 0.00, -187500.02, 0.00, 0.00, 0.00, 0.00, 0.00, 0.00, 0.00, 10:59:12.838
88, 126.49, 0.00, 0.00, -187500.02, 0.00, 0.00, 0.00, 0.00, 0.00, 0.00, 0.00, 10:59:12.841
89, 107.42, 0.00, 0.00, -187500.02, 0.00, 0.00, 0.00, 0.00, 0.00, 0.00, 0.00, 10:59:12.845
90, 192.27, 0.00, 0.00, -187500.02, 0.00, 0.00, 0.00, 0.00, 0.00, 0.00, 0.00, 10:59:12.850
91, 208.12, 0.00, 0.00, -187500.02, 0.00, 0.00, 0.00, 0.00, 0.00, 0.00, 0.00, 10:59:12.852
92, 139.45, 0.00, 0.00, -187500.02, 0.00, 0.00, 0.00, 0.00, 0.00, 0.00, 0.00, 10:59:12.857
93, 122.00, 0.00, 0.00, -187500.02, 0.00, 0.00, 0.00, 0.00, 0.76, -0.06, 0.66, 10:59:12.862
94, 211.92, 0.00, 0.00, -187500.02, 0.00, 0.00, 0.00, 0.00, 0.00, 0.00, 0.00, 10:59:12.866
95, 247.86, 0.00, 0.00, -187500.02, 0.00, 0.00, 0.00, 0.00, 0.00, 0.00, 0.00, 10:59:12.869
96, 173.52, 0.00, 0.00, -187500.02, 0.00, 0.00, 0.00, 0.00, 0.00, 0.00, 0.00, 10:59:12.873
97, 119.31, 0.00, 0.00, -187500.02, 0.00, 0.00, 0.00, 0.00, 0.00, 0.00, 0.00, 10:59:12.877
98, 171.50, 0.00, 0.00, -187500.02, 0.00, 0.00, 0.00, 0.00, 0.00, 0.00, 0.00, 10:59:12.880
99, 216.43, 0.00, 0.00, -187500.02, 0.00, 0.00, 0.00, 0.00, 0.00, 0.00, 0.00, 10:59:12.885
100, 159.50, 0.00, 0.00, -187500.02, 0.00, 0.00, 0.00, 0.00, 0.00, 0.00, 0.00, 10:59:12.890
101, 109.30, 0.00, 0.00, -187500.02, 0.00, 0.00, 0.00, 0.00, 0.00, 0.00, 0.00, 10:59:12.894
102, 173.90, 0.00, 0.00, -187500.02, 0.00, 0.00, 0.00, 0.00, 0.75, -0.07, 0.66, 10:59:12.898
103, 239.48, 0.00, 0.00, -187500.02, 0.00, 0.00, 0.00, 0.00, 0.00, 0.00, 0.00, 10:59:12.901
104, 164.69, 0.00, 0.00, -187500.02, 0.00, 0.00, 0.00, 0.00, 0.00, 0.00, 0.00, 10:59:12.904
105, 101.88, 0.00, 0.00, -187500.02, 0.00, 0.00, 0.00, 0.00, 0.00, 0.00, 0.00, 10:59:12.908
106, 152.04, 0.00, 0.00, -187500.02, 0.00, 0.00, 0.00, 0.00, 0.00, 0.00, 0.00, 10:59:12.912
107, 231.99, 0.00, 0.00, -187500.02, 0.00, 0.00, 0.00, 0.00, 0.00, 0.00, 0.00, 10:59:12.917
108, 205.64, 0.00, 0.00, -187500.02, 0.00, 0.00, 0.00, 0.00, 0.00, 0.00, 0.00, 10:59:12.922
109, 135.99, 0.00, 0.00, -187500.02, 0.00, 0.00, 0.00, 0.00, 0.00, 0.00, 0.00, 10:59:12.926
110, 146.58, 0.00, 0.00, -187500.02, 0.00, 0.00, 0.00, 0.00, 0.00, 0.00, 0.00, 10:59:12.929
111, 224.66, 0.00, 0.00, -187500.02, 0.00, 0.00, 0.00, 0.00, 0.00, 0.00, 0.00, 10:59:12.933
112, 188.96, 0.00, 0.00, -187500.02, 0.00, 0.00, 0.00, 0.00, 0.76, -0.05, 0.66, 10:59:12.948
113, 89.14, 0.00, 0.00, -187500.02, 0.00, 0.00, 0.00, 0.00, 0.00, 0.00, 0.00, 10:59:12.948
114, 87.60, 0.00, 0.00, -187500.02, 0.00, 0.00, 0.00, 0.00, 0.00, 0.00, 0.00, 10:59:12.948
115, 175.75, 0.00, 0.00, -187500.02, 0.00, 0.00, 0.00, 0.00, 0.00, 0.00, 0.00, 10:59:12.950
116, 185.61, 0.00, 0.00, -187500.02, 0.00, 0.00, 0.00, 0.00, 0.00, 0.00, 0.00, 10:59:12.952
117, 107.15, 0.00, 0.00, -187500.02, 0.00, 0.00, 0.00, 0.00, 0.00, 0.00, 0.00, 10:59:12.956
118, 94.46, 0.00, 0.00, -187500.02, 0.00, 0.00, 0.00, 0.00, 0.00, 0.00, 0.00, 10:59:12.961
119, 182.14, 0.00, 0.00, -187500.02, 0.00, 0.00, 0.00, 0.00, 0.00, 0.00, 0.00, 10:59:12.965
120, 208.25, 0.00, 0.00, -187500.02, 0.00, 0.00, 0.00, 0.00, 0.00, 0.00, 0.00, 10:59:12.968
121, 107.51, 0.00, 0.00, -187500.02, 0.00, 0.00, 0.00, 0.00, 0.00, 0.00, 0.00, 10:59:12.973
122, 56.19, 0.00, 0.00, -187500.02, 0.00, 0.00, 0.00, 0.00, 0.75, -0.06, 0.66, 10:59:12.978
123, 129.17, 0.00, 0.00, -187500.02, 0.00, 0.00, 0.00, 0.00, 0.00, 0.00, 0.00, 10:59:12.981
124, 182.99, 0.00, 0.00, -187500.02, 0.00, 0.00, 0.00, 0.00, 0.00, 0.00, 0.00, 10:59:12.985
125, 131.74, 0.00, 0.00, -187500.02, 0.00, 0.00, 0.00, 0.00, 0.00, 0.00, 0.00, 10:59:12.989
126, 80.73, 0.00, 0.00, -187500.02, 0.00, 0.00, 0.00, 0.00, 0.00, 0.00, 0.00, 10:59:12.993
127, 141.40, 0.00, 0.00, -187500.02, 0.00, 0.00, 0.00, 0.00, 0.00, 0.00, 0.00, 10:59:12.997
128, 209.19, 0.00, 0.00, -187500.02, 0.00, 0.00, 0.00, 0.00, 0.00, 0.00, 0.00, 10:59:13.002
129, 150.90, 0.00, 0.00, -187500.02, 0.00, 0.00, 0.00, 0.00, 0.00, 0.00, 0.00, 10:59:13.006
130, 50.00, 0.00, 0.00, -187500.02, 0.00, 0.00, 0.00, 0.00, 0.00, 0.00, 0.00, 10:59:13.009
131, 86.12, 0.00, 0.00, -187500.02, 0.00, 0.00, 0.00, 0.00, 0.00, 0.00, 0.00, 10:59:13.013
132, 166.74, 0.00, 0.00, -187500.02, 0.00, 0.00, 0.00, 0.00, 0.76, -0.06, 0.66, 10:59:13.016
133, 141.11, 0.00, 0.00, -187500.02, 0.00, 0.00, 0.00, 0.00, 0.00, 0.00, 0.00, 10:59:13.021
134, 68.71, 0.00, 0.00, -187500.02, 0.00, 0.00, 0.00, 0.00, 0.00, 0.00, 0.00, 10:59:13.025
135, 100.47, 0.00, 0.00, -187500.02, 0.00, 0.00, 0.00, 0.00, 0.00, 0.00, 0.00, 10:59:13.028
136, 189.07, 0.00, 0.00, -187500.02, 0.00, 0.00, 0.00, 0.00, 0.00, 0.00, 0.00, 10:59:13.033
137, 182.35, 0.00, 0.00, -187500.02, 0.00, 0.00, 0.00, 0.00, 0.00, 0.00, 0.00, 10:59:13.037
138, 82.43, 0.00, 0.00, -187500.02, 0.00, 0.00, 0.00, 0.00, 0.00, 0.00, 0.00, 10:59:13.041
139, 55.25, 0.00, 0.00, -187500.02, 0.00, 0.00, 0.00, 0.00, 0.00, 0.00, 0.00, 10:59:13.047
140, 137.35, 0.00, 0.00, -187500.02, 0.00, 0.00, 0.00, 0.00, 0.00, 0.00, 0.00, 10:59:13.049
141, 152.91, 0.00, 0.00, -187500.02, 0.00, 0.00, 0.00, 0.00, 0.00, 0.00, 0.00, 10:59:13.053
142, 80.44, 0.00, 0.00, -187500.02, 0.00, 0.00, 0.00, 0.00, 0.76, -0.07, 0.65, 10:59:13.057
143, 53.31, 0.00, 0.00, -187500.02, 0.00, 0.00, 0.00, 0.00, 0.00, 0.00, 0.00, 10:59:13.062
144, 134.87, 0.00, 0.00, -187500.02, 0.00, 0.00, 0.00, 0.00, 0.00, 0.00, 0.00, 10:59:13.064
145, 169.40, 0.00, 0.00, -187500.02, 0.00, 0.00, 0.00, 0.00, 0.00, 0.00, 0.00, 10:59:13.069
146, 75.53, 0.00, 0.00, -187500.02, 0.00, 0.00, 0.00, 0.00, 0.00, 0.00, 0.00, 10:59:13.072
147, 12.32, 0.00, 0.00, -187500.02, 0.00, 0.00, 0.00, 0.00, 0.00, 0.00, 0.00, 10:59:13.076
148, 90.26, 0.00, 0.00, -187500.02, 0.00, 0.00, 0.00, 0.00, 0.00, 0.00, 0.00, 10:59:13.081
149, 151.50, 0.00, 0.00, -187500.02, 0.00, 0.00, 0.00, 0.00, 0.00, 0.00, 0.00, 10:59:13.086
150, 98.21, 0.00, 0.00, -187500.02, 0.00, 0.00, 0.00, 0.00, 0.00, 0.00, 0.00, 10:59:13.088
151, 40.64, 0.00, 0.00, -187500.02, 0.00, 0.00, 0.00, 0.00, 0.76, -0.05, 0.65, 10:59:13.092
152, 94.17, 0.00, 0.00, -187500.02, 0.00, 0.00, 0.00, 0.00, 0.00, 0.00, 0.00, 10:59:13.097
153, 166.65, 0.00, 0.00, -187500.02, 0.00, 0.00, 0.00, 0.00, 0.00, 0.00, 0.00, 10:59:13.101
154, 101.88, 0.00, 0.00, -187500.02, 0.00, 0.00, 0.00, 0.00, 0.00, 0.00, 0.00, 10:59:13.104
155, 39.12, 0.00, 0.00, -187500.02, 0.00, 0.00, 0.00, 0.00, 0.00, 0.00, 0.00, 10:59:13.108
156, 88.33, 0.00, 0.00, -187500.02, 0.00, 0.00, 0.00, 0.00, 0.00, 0.00, 0.00, 10:59:13.113
157, 166.79, 0.00, 0.00, -187500.02, 0.00, 0.00, 0.00, 0.00, 0.00, 0.00, 0.00, 10:59:13.117
158, 149.09, 0.00, 0.00, -187500.02, 0.00, 0.00, 0.00, 0.00, 0.00, 0.00, 0.00, 10:59:13.119
159, 81.16, 0.00, 0.00, -187500.02, 0.00, 0.00, 0.00, 0.00, 0.00, 0.00, 0.00, 10:59:13.124
160, 94.68, 0.00, 0.00, -187500.02, 0.00, 0.00, 0.00, 0.00, 0.00, 0.00, 0.00, 10:59:13.129
161, 154.20, 0.00, 0.00, -187500.02, 0.00, 0.00, 0.00, 0.00, 0.76, -0.08, 0.65, 10:59:13.133
162, 147.92, 0.00, 0.00, -187500.02, 0.00, 0.00, 0.00, 0.00, 0.00, 0.00, 0.00, 10:59:13.137
163, 76.78, 0.00, 0.00, -187500.02, 0.00, 0.00, 0.00, 0.00, 0.00, 0.00, 0.00, 10:59:13.141
164, 69.45, 0.00, 0.00, -187500.02, 0.00, 0.00, 0.00, 0.00, 0.00, 0.00, 0.00, 10:59:13.144
165, 159.57, 0.00, 0.00, -187500.02, 0.00, 0.00, 0.00, 0.00, 0.00, 0.00, 0.00, 10:59:13.148
166, 178.97, 0.00, 0.00, -187500.02, 0.00, 0.00, 0.00, 0.00, 0.00, 0.00, 0.00, 10:59:13.160
167, 107.69, 0.00, 0.00, -187500.02, 0.00, 0.00, 0.00, 0.00, 0.00, 0.00, 0.00, 10:59:13.160
168, 70.61, 0.00, 0.00, -187500.02, 0.00, 0.00, 0.00, 0.00, 0.00, 0.00, 0.00, 10:59:13.161
169, 113.90, 0.00, 0.00, -187500.02, 0.00, 0.00, 0.00, 0.00, 0.00, 0.00, 0.00, 10:59:13.164
170, 148.93, 0.00, 0.00, -187500.02, 0.00, 0.00, 0.00, 0.00, 0.00, 0.00, 0.00, 10:59:13.169
171, 89.43, 0.00, 0.00, -187500.02, 0.00, 0.00, 0.00, 0.00, 0.75, -0.06, 0.65, 10:59:13.173
172, 48.64, 0.00, 0.00, -187500.02, 0.00, 0.00, 0.00, 0.00, 0.00, 0.00, 0.00, 10:59:13.175
173, 114.58, 0.00, 0.00, -187500.02, 0.00, 0.00, 0.00, 0.00, 0.00, 0.00, 0.00, 10:59:13.181
174, 184.22, 0.00, 0.00, -187500.02, 0.00, 0.00, 0.00, 0.00, 0.00, 0.00, 0.00, 10:59:13.185
175, 126.00, 0.00, 0.00, -187500.02, 0.00, 0.00, 0.00, 0.00, 0.00, 0.00, 0.00, 10:59:13.189
176, 52.57, 0.00, 0.00, -187500.02, 0.00, 0.00, 0.00, 0.00, 0.00, 0.00, 0.00, 10:59:13.193
177, 80.44, 0.00, 0.00, -187500.02, 0.00, 0.00, 0.00, 0.00, 0.00, 0.00, 0.00, 10:59:13.197
178, 153.76, 0.00, 0.00, -187500.02, 0.00, 0.00, 0.00, 0.00, 0.00, 0.00, 0.00, 10:59:13.201
179, 124.14, 0.00, 0.00, -187500.02, 0.00, 0.00, 0.00, 0.00, 0.00, 0.00, 0.00, 10:59:13.204
180, 54.85, 0.00, 0.00, -187500.02, 0.00, 0.00, 0.00, 0.00, 0.00, 0.00, 0.00, 10:59:13.209
181, 80.29, 0.00, 0.00, -187500.02, 0.00, 0.00, 0.00, 0.00, 0.75, -0.06, 0.66, 10:59:13.212
182, 148.19, 0.00, 0.00, -187500.02, 0.00, 0.00, 0.00, 0.00, 0.00, 0.00, 0.00, 10:59:13.217
183, 124.41, 0.00, 0.00, -187500.02, 0.00, 0.00, 0.00, 0.00, 0.00, 0.00, 0.00, 10:59:13.221
184, 30.00, 0.00, 0.00, -187500.02, 0.00, 0.00, 0.00, 0.00, 0.00, 0.00, 0.00, 10:59:13.224
185, 17.79, 0.00, 0.00, -187500.02, 0.00, 0.00, 0.00, 0.00, 0.00, 0.00, 0.00, 10:59:13.227
186, 107.85, 0.00, 0.00, -187500.02, 0.00, 0.00, 0.00, 0.00, 0.00, 0.00, 0.00, 10:59:13.232
187, 115.47, 0.00, 0.00, -187500.02, 0.00, 0.00, 0.00, 0.00, 0.00, 0.00, 0.00, 10:59:13.236
188, 45.46, 0.00, 0.00, -187500.02, 0.00, 0.00, 0.00, 0.00, 0.00, 0.00, 0.00, 10:59:13.241
189, 45.31, 0.00, 0.00, -187500.02, 0.00, 0.00, 0.00, 0.00, 0.00, 0.00, 0.00, 10:59:13.245
190, 133.15, 0.00, 0.00, -187500.02, 0.00, 0.00, 0.00, 0.00, 0.75, -0.06, 0.67, 10:59:13.249
191, 159.30, 0.00, 0.00, -187500.02, 0.00, 0.00, 0.00, 0.00, 0.00, 0.00, 0.00, 10:59:13.252
192, 63.84, 0.00, 0.00, -187500.02, 0.00, 0.00, 0.00, 0.00, 0.00, 0.00, 0.00, 10:59:13.256
193, -4.69, 0.00, 0.00, -187500.02, 0.00, 0.00, 0.00, 0.00, 0.00, 0.00, 0.00, 10:59:13.260
194, 69.13, 0.00, 0.00, -187500.02, 0.00, 0.00, 0.00, 0.00, 0.00, 0.00, 0.00, 10:59:13.264
195, 125.71, 0.00, 0.00, -187500.02, 0.00, 0.00, 0.00, 0.00, 0.00, 0.00, 0.00, 10:59:13.269
196, 77.74, 0.00, 0.00, -187500.02, 0.00, 0.00, 0.00, 0.00, 0.00, 0.00, 0.00, 10:59:13.273
197, 43.16, 0.00, 0.00, -187500.02, 0.00, 0.00, 0.00, 0.00, 0.00, 0.00, 0.00, 10:59:13.277
198, 104.34, 0.00, 0.00, -187500.02, 0.00, 0.00, 0.00, 0.00, 0.00, 0.00, 0.00, 10:59:13.280
199, 155.32, 0.00, 0.00, -187500.02, 0.00, 0.00, 0.00, 0.00, 0.00, 0.00, 0.00, 10:59:13.284
200, 106.48, 0.00, 0.00, -187500.02, 0.00, 0.00, 0.00, 0.00, 0.75, -0.06, 0.67, 10:59:13.288
201, 48.30, 0.00, 0.00, -187500.02, 0.00, 0.00, 0.00, 0.00, 0.00, 0.00, 0.00, 10:59:13.292
202, 64.51, 0.00, 0.00, -187500.02, 0.00, 0.00, 0.00, 0.00, 0.00, 0.00, 0.00, 10:59:13.297
203, 135.54, 0.00, 0.00, -187500.02, 0.00, 0.00, 0.00, 0.00, 0.00, 0.00, 0.00, 10:59:13.301
204, 127.58, 0.00, 0.00, -187500.02, 0.00, 0.00, 0.00, 0.00, 0.00, 0.00, 0.00, 10:59:13.305
205, 59.52, 0.00, 0.00, -187500.02, 0.00, 0.00, 0.00, 0.00, 0.00, 0.00, 0.00, 10:59:13.308
206, 84.78, 0.00, 0.00, -187500.02, 0.00, 0.00, 0.00, 0.00, 0.00, 0.00, 0.00, 10:59:13.312
207, 173.18, 0.00, 0.00, -187500.02, 0.00, 0.00, 0.00, 0.00, 0.00, 0.00, 0.00, 10:59:13.316
208, 160.91, 0.00, 0.00, -187500.02, 0.00, 0.00, 0.00, 0.00, 0.00, 0.00, 0.00, 10:59:13.321
209, 83.46, 0.00, 0.00, -187500.02, 0.00, 0.00, 0.00, 0.00, 0.00, 0.00, 0.00, 10:59:13.324
210, 61.53, 0.00, 0.00, -187500.02, 0.00, 0.00, 0.00, 0.00, 0.75, -0.05, 0.67, 10:59:13.329
211, 124.70, 0.00, 0.00, -187500.02, 0.00, 0.00, 0.00, 0.00, 0.00, 0.00, 0.00, 10:59:13.332
212, 133.17, 0.00, 0.00, -187500.02, 0.00, 0.00, 0.00, 0.00, 0.00, 0.00, 0.00, 10:59:13.336
213, 66.52, 0.00, 0.00, -187500.02, 0.00, 0.00, 0.00, 0.00, 0.00, 0.00, 0.00, 10:59:13.341
214, 65.96, 0.00, 0.00, -187500.02, 0.00, 0.00, 0.00, 0.00, 0.00, 0.00, 0.00, 10:59:13.344
215, 143.16, 0.00, 0.00, -187500.02, 0.00, 0.00, 0.00, 0.00, 0.00, 0.00, 0.00, 10:59:13.348
216, 169.90, 0.00, 0.00, -187500.02, 0.00, 0.00, 0.00, 0.00, 0.00, 0.00, 0.00, 10:59:13.353
217, 117.32, 0.00, 0.00, -187500.02, 0.00, 0.00, 0.00, 0.00, 0.00, 0.00, 0.00, 10:59:13.357
218, 66.54, 0.00, 0.00, -187500.02, 0.00, 0.00, 0.00, 0.00, 0.00, 0.00, 0.00, 10:59:13.360
219, 101.57, 0.00, 0.00, -187500.02, 0.00, 0.00, 0.00, 0.00, 0.00, 0.00, 0.00, 10:59:13.364
220, 152.42, 0.00, 0.00, -187500.02, 0.00, 0.00, 0.00, 0.00, 0.76, -0.04, 0.67, 10:59:13.368
221, 94.97, 0.00, 0.00, -187500.02, 0.00, 0.00, 0.00, 0.00, 0.00, 0.00, 0.00, 10:59:13.372
222, 42.47, 0.00, 0.00, -187500.02, 0.00, 0.00, 0.00, 0.00, 0.00, 0.00, 0.00, 10:59:13.376
223, 107.96, 0.00, 0.00, -187500.02, 0.00, 0.00, 0.00, 0.00, 0.00, 0.00, 0.00, 10:59:13.381
224, 187.06, 0.00, 0.00, -187500.02, 0.00, 0.00, 0.00, 0.00, 0.00, 0.00, 0.00, 10:59:13.386
225, 138.02, 0.00, 0.00, -187500.02, 0.00, 0.00, 0.00, 0.00, 0.00, 0.00, 0.00, 10:59:13.388
226, 62.23, 0.00, 0.00, -187500.02, 0.00, 0.00, 0.00, 0.00, 0.00, 0.00, 0.00, 10:59:13.392
227, 76.60, 0.00, 0.00, -187500.02, 0.00, 0.00, 0.00, 0.00, 0.00, 0.00, 0.00, 10:59:13.396
228, 146.69, 0.00, 0.00, -187500.02, 0.00, 0.00, 0.00, 0.00, 0.00, 0.00, 0.00, 10:59:13.401
229, 132.26, 0.00, 0.00, -187500.02, 0.00, 0.00, 0.00, 0.00, 0.00, 0.00, 0.00, 10:59:13.405
230, 66.85, 0.00, 0.00, -187500.02, 0.00, 0.00, 0.00, 0.00, 0.73, -0.07, 0.67, 10:59:13.408
231, 91.20, 0.00, 0.00, -187500.02, 0.00, 0.00, 0.00, 0.00, 0.00, 0.00, 0.00, 10:59:13.413
232, 178.84, 0.00, 0.00, -187500.02, 0.00, 0.00, 0.00, 0.00, 0.00, 0.00, 0.00, 10:59:13.417
233, 155.43, 0.00, 0.00, -187500.02, 0.00, 0.00, 0.00, 0.00, 0.00, 0.00, 0.00, 10:59:13.419
234, 47.41, 0.00, 0.00, -187500.02, 0.00, 0.00, 0.00, 0.00, 0.00, 0.00, 0.00, 10:59:13.424
235, 25.12, 0.00, 0.00, -187500.02, 0.00, 0.00, 0.00, 0.00, 0.00, 0.00, 0.00, 10:59:13.429
236, 110.95, 0.00, 0.00, -187500.02, 0.00, 0.00, 0.00, 0.00, 0.00, 0.00, 0.00, 10:59:13.432
237, 131.67, 0.00, 0.00, -187500.02, 0.00, 0.00, 0.00, 0.00, 0.00, 0.00, 0.00, 10:59:13.436
238, 66.63, 0.00, 0.00, -187500.02, 0.00, 0.00, 0.00, 0.00, 0.00, 0.00, 0.00, 10:59:13.440
239, 43.90, 0.00, 0.00, -187500.02, 0.00, 0.00, 0.00, 0.00, 0.75, -0.03, 0.66, 10:59:13.444
240, 122.80, 0.00, 0.00, -187500.02, 0.00, 0.00, 0.00, 0.00, 0.00, 0.00, 0.00, 10:59:13.447
241, 159.81, 0.00, 0.00, -187500.02, 0.00, 0.00, 0.00, 0.00, 0.00, 0.00, 0.00, 10:59:13.452
242, 56.17, 0.00, 0.00, -187500.02, 0.00, 0.00, 0.00, 0.00, 0.00, 0.00, 0.00, 10:59:13.458
243, -3.98, 0.00, 0.00, -187500.02, 0.00, 0.00, 0.00, 0.00, 0.00, 0.00, 0.00, 10:59:13.461
244, 61.89, 0.00, 0.00, -187500.02, 0.00, 0.00, 0.00, 0.00, 0.00, 0.00, 0.00, 10:59:13.464
245, 124.68, 0.00, 0.00, -187500.02, 0.00, 0.00, 0.00, 0.00, 0.00, 0.00, 0.00, 10:59:13.468
246, 67.57, 0.00, 0.00, -187500.02, 0.00, 0.00, 0.00, 0.00, 0.00, 0.00, 0.00, 10:59:13.472
247, 12.65, 0.00, 0.00, -187500.02, 0.00, 0.00, 0.00, 0.00, 0.00, 0.00, 0.00, 10:59:13.476
248, 69.20, 0.00, 0.00, -187500.02, 0.00, 0.00, 0.00, 0.00, 0.00, 0.00, 0.00, 10:59:13.481
249, 145.91, 0.00, 0.00, -187500.02, 0.00, 0.00, 0.00, 0.00, 0.77, -0.03, 0.65, 10:59:13.484
250, 87.66, 0.00, 0.00, -187500.02, 0.00, 0.00, 0.00, 0.00, 0.00, 0.00, 0.00, 10:59:13.488
251, -9.14, 0.00, 0.00, -187500.02, 0.00, 0.00, 0.00, 0.00, 0.00, 0.00, 0.00, 10:59:13.492
252, 22.84, 0.00, 0.00, -187500.02, 0.00, 0.00, 0.00, 0.00, 0.00, 0.00, 0.00, 10:59:13.496
253, 100.31, 0.00, 0.00, -187500.02, 0.00, 0.00, 0.00, 0.00, 0.00, 0.00, 0.00, 10:59:13.499
254, 80.04, 0.00, 0.00, -187500.02, 0.00, 0.00, 0.00, 0.00, 0.00, 0.00, 0.00, 10:59:13.504
255, 7.51, 0.00, 0.00, -187500.02, 0.00, 0.00, 0.00, 0.00, 0.00, 0.00, 0.00, 10:59:13.509
0, 30.53, 0.00, 0.00, -187500.02, 0.00, 0.00, 0.00, 0.00, 0.00, 0.00, 0.00, 10:59:13.512
1, 134.07, 0.00, 0.00, -187500.02, 0.00, 0.00, 0.00, 0.00, 0.00, 0.00, 0.00, 10:59:13.516
2, 130.02, 0.00, 0.00, -187500.02, 0.00, 0.00, 0.00, 0.00, 0.00, 0.00, 0.00, 10:59:13.520
3, 27.81, 0.00, 0.00, -187500.02, 0.00, 0.00, 0.00, 0.00, 0.76, -0.07, 0.63, 10:59:13.524
4, 9.19, 0.00, 0.00, -187500.02, 0.00, 0.00, 0.00, 0.00, 0.00, 0.00, 0.00, 10:59:13.528
5, 94.50, 0.00, 0.00, -187500.02, 0.00, 0.00, 0.00, 0.00, 0.00, 0.00, 0.00, 10:59:13.531
6, 121.64, 0.00, 0.00, -187500.02, 0.00, 0.00, 0.00, 0.00, 0.00, 0.00, 0.00, 10:59:13.536
7, 50.81, 0.00, 0.00, -187500.02, 0.00, 0.00, 0.00, 0.00, 0.00, 0.00, 0.00, 10:59:13.540
8, 24.14, 0.00, 0.00, -187500.02, 0.00, 0.00, 0.00, 0.00, 0.00, 0.00, 0.00, 10:59:13.544
9, 107.58, 0.00, 0.00, -187500.02, 0.00, 0.00, 0.00, 0.00, 0.00, 0.00, 0.00, 10:59:13.549
10, 144.08, 0.00, 0.00, -187500.02, 0.00, 0.00, 0.00, 0.00, 0.00, 0.00, 0.00, 10:59:13.551
11, 52.84, 0.00, 0.00, -187500.02, 0.00, 0.00, 0.00, 0.00, 0.00, 0.00, 0.00, 10:59:13.555
12, -6.79, 0.00, 0.00, -187500.02, 0.00, 0.00, 0.00, 0.00, 0.00, 0.00, 0.00, 10:59:13.559
13, 61.04, 0.00, 0.00, -187500.02, 0.00, 0.00, 0.00, 0.00, 0.77, -0.08, 0.63, 10:59:13.564
14, 122.35, 0.00, 0.00, -187500.02, 0.00, 0.00, 0.00, 0.00, 0.00, 0.00, 0.00, 10:59:13.569
15, 70.23, 0.00, 0.00, -187500.02, 0.00, 0.00, 0.00, 0.00, 0.00, 0.00, 0.00, 10:59:13.573
16, 13.70, 0.00, 0.00, -187500.02, 0.00, 0.00, 0.00, 0.00, 0.00, 0.00, 0.00, 10:59:13.575
17, 74.57, 0.00, 0.00, -187500.02, 0.00, 0.00, 0.00, 0.00, 0.00, 0.00, 0.00, 10:59:13.579
18, 150.11, 0.00, 0.00, -187500.02, 0.00, 0.00, 0.00, 0.00, 0.00, 0.00, 0.00, 10:59:13.584
19, 71.82, 0.00, 0.00, -187500.02, 0.00, 0.00, 0.00, 0.00, 0.00, 0.00, 0.00, 10:59:13.587
20, -2.55, 0.00, 0.00, -187500.02, 0.00, 0.00, 0.00, 0.00, 0.00, 0.00, 0.00, 10:59:13.591
21, 44.21, 0.00, 0.00, -187500.02, 0.00, 0.00, 0.00, 0.00, 0.00, 0.00, 0.00, 10:59:13.596
22, 129.60, 0.00, 0.00, -187500.02, 0.00, 0.00, 0.00, 0.00, 0.00, 0.00, 0.00, 10:59:13.601
23, 114.04, 0.00, 0.00, -187500.02, 0.00, 0.00, 0.00, 0.00, 0.77, -0.07, 0.62, 10:59:13.604
24, 45.33, 0.00, 0.00, -187500.02, 0.00, 0.00, 0.00, 0.00, 0.00, 0.00, 0.00, 10:59:13.607
25, 38.42, 0.00, 0.00, -187500.02, 0.00, 0.00, 0.00, 0.00, 0.00, 0.00, 0.00, 10:59:13.611
26, 119.67, 0.00, 0.00, -187500.02, 0.00, 0.00, 0.00, 0.00, 0.00, 0.00, 0.00, 10:59:13.616
27, 122.06, 0.00, 0.00, -187500.02, 0.00, 0.00, 0.00, 0.00, 0.00, 0.00, 0.00, 10:59:13.619
28, 46.94, 0.00, 0.00, -187500.02, 0.00, 0.00, 0.00, 0.00, 0.00, 0.00, 0.00, 10:59:13.624
29, 38.51, 0.00, 0.00, -187500.02, 0.00, 0.00, 0.00, 0.00, 0.00, 0.00, 0.00, 10:59:13.628
30, 132.46, 0.00, 0.00, -187500.02, 0.00, 0.00, 0.00, 0.00, 0.00, 0.00, 0.00, 10:59:13.632
31, 166.92, 0.00, 0.00, -187500.02, 0.00, 0.00, 0.00, 0.00, 0.00, 0.00, 0.00, 10:59:13.635
32, 83.30, 0.00, 0.00, -187500.02, 0.00, 0.00, 0.00, 0.00, 0.76, -0.07, 0.62, 10:59:13.639
33, 23.47, 0.00, 0.00, -187500.02, 0.00, 0.00, 0.00, 0.00, 0.00, 0.00, 0.00, 10:59:13.643
34, 101.12, 0.00, 0.00, -187500.02, 0.00, 0.00, 0.00, 0.00, 0.00, 0.00, 0.00, 10:59:13.648
35, 148.91, 0.00, 0.00, -187500.02, 0.00, 0.00, 0.00, 0.00, 0.00, 0.00, 0.00, 10:59:13.653
36, 83.80, 0.00, 0.00, -187500.02, 0.00, 0.00, 0.00, 0.00, 0.00, 0.00, 0.00, 10:59:13.657
37, 39.81, 0.00, 0.00, -187500.02, 0.00, 0.00, 0.00, 0.00, 0.00, 0.00, 0.00, 10:59:13.659
38, 108.61, 0.00, 0.00, -187500.02, 0.00, 0.00, 0.00, 0.00, 0.00, 0.00, 0.00, 10:59:13.663
39, 177.70, 0.00, 0.00, -187500.02, 0.00, 0.00, 0.00, 0.00, 0.00, 0.00, 0.00, 10:59:13.668
40, 110.10, 0.00, 0.00, -187500.02, 0.00, 0.00, 0.00, 0.00, 0.00, 0.00, 0.00, 10:59:13.672
41, 14.91, 0.00, 0.00, -187500.02, 0.00, 0.00, 0.00, 0.00, 0.00, 0.00, 0.00, 10:59:13.675
42, 72.75, 0.00, 0.00, -187500.02, 0.00, 0.00, 0.00, 0.00, 0.76, -0.09, 0.63, 10:59:13.680
43, 157.27, 0.00, 0.00, -187500.02, 0.00, 0.00, 0.00, 0.00, 0.00, 0.00, 0.00, 10:59:13.685
44, 114.26, 0.00, 0.00, -187500.02, 0.00, 0.00, 0.00, 0.00, 0.00, 0.00, 0.00, 10:59:13.687
45, 48.37, 0.00, 0.00, -187500.02, 0.00, 0.00, 0.00, 0.00, 0.00, 0.00, 0.00, 10:59:13.692
46, 80.47, 0.00, 0.00, -187500.02, 0.00, 0.00, 0.00, 0.00, 0.00, 0.00, 0.00, 10:59:13.696
47, 163.73, 0.00, 0.00, -187500.02, 0.00, 0.00, 0.00, 0.00, 0.00, 0.00, 0.00, 10:59:13.699
48, 143.39, 0.00, 0.00, -187500.02, 0.00, 0.00, 0.00, 0.00, 0.00, 0.00, 0.00, 10:59:13.703
49, 46.22, 0.00, 0.00, -187500.02, 0.00, 0.00, 0.00, 0.00, 0.00, 0.00, 0.00, 10:59:13.708
50, 37.13, 0.00, 0.00, -187500.02, 0.00, 0.00, 0.00, 0.00, 0.00, 0.00, 0.00, 10:59:13.712
51, 119.16, 0.00, 0.00, -187500.02, 0.00, 0.00, 0.00, 0.00, 0.00, 0.00, 0.00, 10:59:13.714
52, 120.10, 0.00, 0.00, -187500.02, 0.00, 0.00, 0.00, 0.00, 0.76, -0.09, 0.63, 10:59:13.719
53, 51.50, 0.00, 0.00, -187500.02, 0.00, 0.00, 0.00, 0.00, 0.00, 0.00, 0.00, 10:59:13.724
54, 56.62, 0.00, 0.00, -187500.02, 0.00, 0.00, 0.00, 0.00, 0.00, 0.00, 0.00, 10:59:13.728
55, 142.47, 0.00, 0.00, -187500.02, 0.00, 0.00, 0.00, 0.00, 0.00, 0.00, 0.00, 10:59:13.731
56, 166.77, 0.00, 0.00, -187500.02, 0.00, 0.00, 0.00, 0.00, 0.00, 0.00, 0.00, 10:59:13.736
57, 87.26, 0.00, 0.00, -187500.02, 0.00, 0.00, 0.00, 0.00, 0.00, 0.00, 0.00, 10:59:13.739
58, 44.23, 0.00, 0.00, -187500.02, 0.00, 0.00, 0.00, 0.00, 0.00, 0.00, 0.00, 10:59:13.744
59, 103.02, 0.00, 0.00, -187500.02, 0.00, 0.00, 0.00, 0.00, 0.00, 0.00, 0.00, 10:59:13.748
60, 138.92, 0.00, 0.00, -187500.02, 0.00, 0.00, 0.00, 0.00, 0.00, 0.00, 0.00, 10:59:13.751
61, 76.98, 0.00, 0.00, -187500.02, 0.00, 0.00, 0.00, 0.00, 0.00, 0.00, 0.00, 10:59:13.756
62, 54.05, 0.00, 0.00, -187500.02, 0.00, 0.00, 0.00, 0.00, 0.77, -0.09, 0.62, 10:59:13.760
63, 135.88, 0.00, 0.00, -187500.02, 0.00, 0.00, 0.00, 0.00, 0.00, 0.00, 0.00, 10:59:13.764
64, 188.02, 0.00, 0.00, -187500.02, 0.00, 0.00, 0.00, 0.00, 0.00, 0.00, 0.00, 10:59:13.767
65, 126.94, 0.00, 0.00, -187500.02, 0.00, 0.00, 0.00, 0.00, 0.00, 0.00, 0.00, 10:59:13.770
66, 46.63, 0.00, 0.00, -187500.02, 0.00, 0.00, 0.00, 0.00, 0.00, 0.00, 0.00, 10:59:13.775
67, 77.14, 0.00, 0.00, -187500.02, 0.00, 0.00, 0.00, 0.00, 0.00, 0.00, 0.00, 10:59:13.780
68, 146.25, 0.00, 0.00, -187500.02, 0.00, 0.00, 0.00, 0.00, 0.00, 0.00, 0.00, 10:59:13.784
69, 107.58, 0.00, 0.00, -187500.02, 0.00, 0.00, 0.00, 0.00, 0.00, 0.00, 0.00, 10:59:13.787
70, 41.60, 0.00, 0.00, -187500.02, 0.00, 0.00, 0.00, 0.00, 0.00, 0.00, 0.00, 10:59:13.792
71, 93.85, 0.00, 0.00, -187500.02, 0.00, 0.00, 0.00, 0.00, 0.77, -0.09, 0.63, 10:59:13.796
72, 171.10, 0.00, 0.00, -187500.02, 0.00, 0.00, 0.00, 0.00, 0.00, 0.00, 0.00, 10:59:13.798
73, 138.31, 0.00, 0.00, -187500.02, 0.00, 0.00, 0.00, 0.00, 0.00, 0.00, 0.00, 10:59:13.804
74, 33.24, 0.00, 0.00, -187500.02, 0.00, 0.00, 0.00, 0.00, 0.00, 0.00, 0.00, 10:59:13.807
75, 34.73, 0.00, 0.00, -187500.02, 0.00, 0.00, 0.00, 0.00, 0.00, 0.00, 0.00, 10:59:13.812
76, 136.64, 0.00, 0.00, -187500.02, 0.00, 0.00, 0.00, 0.00, 0.00, 0.00, 0.00, 10:59:13.815
77, 126.26, 0.00, 0.00, -187500.02, 0.00, 0.00, 0.00, 0.00, 0.00, 0.00, 0.00, 10:59:13.819
78, 55.52, 0.00, 0.00, -187500.02, 0.00, 0.00, 0.00, 0.00, 0.00, 0.00, 0.00, 10:59:13.823
79, 74.86, 0.00, 0.00, -187500.02, 0.00, 0.00, 0.00, 0.00, 0.00, 0.00, 0.00, 10:59:13.826
80, 164.26, 0.00, 0.00, -187500.02, 0.00, 0.00, 0.00, 0.00, 0.00, 0.00, 0.00, 10:59:13.832
81, 171.35, 0.00, 0.00, -187500.02, 0.00, 0.00, 0.00, 0.00, 0.77, -0.08, 0.62, 10:59:13.836
82, 73.63, 0.00, 0.00, -187500.02, 0.00, 0.00, 0.00, 0.00, 0.00, 0.00, 0.00, 10:59:13.840
83, 25.53, 0.00, 0.00, -187500.02, 0.00, 0.00, 0.00, 0.00, 0.00, 0.00, 0.00, 10:59:13.844
84, 107.60, 0.00, 0.00, -187500.02, 0.00, 0.00, 0.00, 0.00, 0.00, 0.00, 0.00, 10:59:13.846
85, 142.54, 0.00, 0.00, -187500.02, 0.00, 0.00, 0.00, 0.00, 0.00, 0.00, 0.00, 10:59:13.851
86, 69.04, 0.00, 0.00, -187500.02, 0.00, 0.00, 0.00, 0.00, 0.00, 0.00, 0.00, 10:59:13.855
87, 43.41, 0.00, 0.00, -187500.02, 0.00, 0.00, 0.00, 0.00, 0.00, 0.00, 0.00, 10:59:13.860
88, 127.47, 0.00, 0.00, -187500.02, 0.00, 0.00, 0.00, 0.00, 0.00, 0.00, 0.00, 10:59:13.864
89, 177.50, 0.00, 0.00, -187500.02, 0.00, 0.00, 0.00, 0.00, 0.00, 0.00, 0.00, 10:59:13.867
90, 96.85, 0.00, 0.00, -187500.02, 0.00, 0.00, 0.00, 0.00, 0.00, 0.00, 0.00, 10:59:13.871
91, 16.61, 0.00, 0.00, -187500.02, 0.00, 0.00, 0.00, 0.00, 0.76, -0.06, 0.65, 10:59:13.876
92, 68.02, 0.00, 0.00, -187500.02, 0.00, 0.00, 0.00, 0.00, 0.00, 0.00, 0.00, 10:59:13.879
93, 136.48, 0.00, 0.00, -187500.02, 0.00, 0.00, 0.00, 0.00, 0.00, 0.00, 0.00, 10:59:13.882
94, 82.12, 0.00, 0.00, -187500.02, 0.00, 0.00, 0.00, 0.00, 0.00, 0.00, 0.00, 10:59:13.887
95, 33.73, 0.00, 0.00, -187500.02, 0.00, 0.00, 0.00, 0.00, 0.00, 0.00, 0.00, 10:59:13.892
96, 90.99, 0.00, 0.00, -187500.02, 0.00, 0.00, 0.00, 0.00, 0.00, 0.00, 0.00, 10:59:13.896
97, 178.01, 0.00, 0.00, -187500.02, 0.00, 0.00, 0.00, 0.00, 0.00, 0.00, 0.00, 10:59:13.900
98, 136.03, 0.00, 0.00, -187500.02, 0.00, 0.00, 0.00, 0.00, 0.00, 0.00, 0.00, 10:59:13.902
99, 67.26, 0.00, 0.00, -187500.02, 0.00, 0.00, 0.00, 0.00, 0.00, 0.00, 0.00, 10:59:13.907
100, 74.65, 0.00, 0.00, -187500.02, 0.00, 0.00, 0.00, 0.00, 0.00, 0.00, 0.00, 10:59:13.911
101, 146.69, 0.00, 0.00, -187500.02, 0.00, 0.00, 0.00, 0.00, 0.74, -0.06, 0.66, 10:59:13.916
102, 131.94, 0.00, 0.00, -187500.02, 0.00, 0.00, 0.00, 0.00, 0.00, 0.00, 0.00, 10:59:13.920
103, 51.70, 0.00, 0.00, -187500.02, 0.00, 0.00, 0.00, 0.00, 0.00, 0.00, 0.00, 10:59:13.923
104, 72.46, 0.00, 0.00, -187500.02, 0.00, 0.00, 0.00, 0.00, 0.00, 0.00, 0.00, 10:59:13.928
105, 165.27, 0.00, 0.00, -187500.02, 0.00, 0.00, 0.00, 0.00, 0.00, 0.00, 0.00, 10:59:13.931
106, 166.41, 0.00, 0.00, -187500.02, 0.00, 0.00, 0.00, 0.00, 0.00, 0.00, 0.00, 10:59:13.935
107, 62.70, 0.00, 0.00, -187500.02, 0.00, 0.00, 0.00, 0.00, 0.00, 0.00, 0.00, 10:59:13.939
108, 25.82, 0.00, 0.00, -187500.02, 0.00, 0.00, 0.00, 0.00, 0.00, 0.00, 0.00, 10:59:13.942
109, 113.23, 0.00, 0.00, -187500.02, 0.00, 0.00, 0.00, 0.00, 0.00, 0.00, 0.00, 10:59:13.948
110, 148.73, 0.00, 0.00, -187500.02, 0.00, 0.00, 0.00, 0.00, 0.00, 0.00, 0.00, 10:59:13.952
111, 68.13, 0.00, 0.00, -187500.02, 0.00, 0.00, 0.00, 0.00, 0.75, -0.09, 0.66, 10:59:13.955
112, 37.15, 0.00, 0.00, -187500.02, 0.00, 0.00, 0.00, 0.00, 0.00, 0.00, 0.00, 10:59:13.959
113, 123.76, 0.00, 0.00, -187500.02, 0.00, 0.00, 0.00, 0.00, 0.00, 0.00, 0.00, 10:59:13.962
114, 158.88, 0.00, 0.00, -187500.02, 0.00, 0.00, 0.00, 0.00, 0.00, 0.00, 0.00, 10:59:13.967
115, 70.81, 0.00, 0.00, -187500.02, 0.00, 0.00, 0.00, 0.00, 0.00, 0.00, 0.00, 10:59:13.971
116, -10.55, 0.00, 0.00, -187500.02, 0.00, 0.00, 0.00, 0.00, 0.00, 0.00, 0.00, 10:59:13.975
117, 53.22, 0.00, 0.00, -187500.02, 0.00, 0.00, 0.00, 0.00, 0.00, 0.00, 0.00, 10:59:13.980
118, 107.13, 0.00, 0.00, -187500.02, 0.00, 0.00, 0.00, 0.00, 0.00, 0.00, 0.00, 10:59:13.983
119, 46.13, 0.00, 0.00, -187500.02, 0.00, 0.00, 0.00, 0.00, 0.00, 0.00, 0.00, 10:59:13.987
120, -4.40, 0.00, 0.00, -187500.02, 0.00, 0.00, 0.00, 0.00, 0.73, -0.10, 0.68, 10:59:13.991
121, 70.59, 0.00, 0.00, -187500.02, 0.00, 0.00, 0.00, 0.00, 0.00, 0.00, 0.00, 10:59:13.995
122, 152.17, 0.00, 0.00, -187500.02, 0.00, 0.00, 0.00, 0.00, 0.00, 0.00, 0.00, 10:59:13.999
123, 90.73, 0.00, 0.00, -187500.02, 0.00, 0.00, 0.00, 0.00, 0.00, 0.00, 0.00, 10:59:14.003
124, -28.36, 0.00, 0.00, -187500.02, 0.00, 0.00, 0.00, 0.00, 0.00, 0.00, 0.00, 10:59:14.008
125, -3.76, 0.00, 0.00, -187500.02, 0.00, 0.00, 0.00, 0.00, 0.00, 0.00, 0.00, 10:59:14.011
126, 94.37, 0.00, 0.00, -187500.02, 0.00, 0.00, 0.00, 0.00, 0.00, 0.00, 0.00, 10:59:14.014
127, 74.74, 0.00, 0.00, -187500.02, 0.00, 0.00, 0.00, 0.00, 0.00, 0.00, 0.00, 10:59:14.019
128, -2.84, 0.00, 0.00, -187500.02, 0.00, 0.00, 0.00, 0.00, 0.00, 0.00, 0.00, 10:59:14.023
129, 26.55, 0.00, 0.00, -187500.02, 0.00, 0.00, 0.00, 0.00, 0.00, 0.00, 0.00, 10:59:14.026
130, 133.02, 0.00, 0.00, -187500.02, 0.00, 0.00, 0.00, 0.00, 0.71, -0.14, 0.70, 10:59:14.031
131, 111.85, 0.00, 0.00, -187500.02, 0.00, 0.00, 0.00, 0.00, 0.00, 0.00, 0.00, 10:59:14.037
132, -17.66, 0.00, 0.00, -187500.02, 0.00, 0.00, 0.00, 0.00, 0.00, 0.00, 0.00, 10:59:14.038
133, -38.82, 0.00, 0.00, -187500.02, 0.00, 0.00, 0.00, 0.00, 0.00, 0.00, 0.00, 10:59:14.042
134, 72.17, 0.00, 0.00, -187500.02, 0.00, 0.00, 0.00, 0.00, 0.00, 0.00, 0.00, 10:59:14.046
135, 110.53, 0.00, 0.00, -187500.02, 0.00, 0.00, 0.00, 0.00, 0.00, 0.00, 0.00, 10:59:14.051
136, 23.11, 0.00, 0.00, -187500.02, 0.00, 0.00, 0.00, 0.00, 0.00, 0.00, 0.00, 10:59:14.055
137, 5.14, 0.00, 0.00, -187500.02, 0.00, 0.00, 0.00, 0.00, 0.00, 0.00, 0.00, 10:59:14.060
138, 100.27, 0.00, 0.00, -187500.02, 0.00, 0.00, 0.00, 0.00, 0.00, 0.00, 0.00, 10:59:14.064
139, 143.70, 0.00, 0.00, -187500.02, 0.00, 0.00, 0.00, 0.00, 0.00, 0.00, 0.00, 10:59:14.066
140, 48.95, 0.00, 0.00, -187500.02, 0.00, 0.00, 0.00, 0.00, 0.69, -0.14, 0.72, 10:59:14.071
141, -36.57, 0.00, 0.00, -187500.02, 0.00, 0.00, 0.00, 0.00, 0.00, 0.00, 0.00, 10:59:14.075
142, 38.49, 0.00, 0.00, -187500.02, 0.00, 0.00, 0.00, 0.00, 0.00, 0.00, 0.00, 10:59:14.079
143, 126.64, 0.00, 0.00, -187500.02, 0.00, 0.00, 0.00, 0.00, 0.00, 0.00, 0.00, 10:59:14.084
144, 66.59, 0.00, 0.00, -187500.02, 0.00, 0.00, 0.00, 0.00, 0.00, 0.00, 0.00, 10:59:14.087
145, 3.29, 0.00, 0.00, -187500.02, 0.00, 0.00, 0.00, 0.00, 0.00, 0.00, 0.00, 10:59:14.091
146, 70.77, 0.00, 0.00, -187500.02, 0.00, 0.00, 0.00, 0.00, 0.00, 0.00, 0.00, 10:59:14.096
147, 157.96, 0.00, 0.00, -187500.02, 0.00, 0.00, 0.00, 0.00, 0.00, 0.00, 0.00, 10:59:14.099
148, 107.27, 0.00, 0.00, -187500.02, 0.00, 0.00, 0.00, 0.00, 0.00, 0.00, 0.00, 10:59:14.102
149, -6.55, 0.00, 0.00, -187500.02, 0.00, 0.00, 0.00, 0.00, 0.00, 0.00, 0.00, 10:59:14.107
150, 7.20, 0.00, 0.00, -187500.02, 0.00, 0.00, 0.00, 0.00, 0.69, -0.13, 0.72, 10:59:14.111
151, 105.70, 0.00, 0.00, -187500.02, 0.00, 0.00, 0.00, 0.00, 0.00, 0.00, 0.00, 10:59:14.115
152, 92.38, 0.00, 0.00, -187500.02, 0.00, 0.00, 0.00, 0.00, 0.00, 0.00, 0.00, 10:59:14.118
153, 7.64, 0.00, 0.00, -187500.02, 0.00, 0.00, 0.00, 0.00, 0.00, 0.00, 0.00, 10:59:14.122
154, 23.38, 0.00, 0.00, -187500.02, 0.00, 0.00, 0.00, 0.00, 0.00, 0.00, 0.00, 10:59:14.126
155, 128.12, 0.00, 0.00, -187500.02, 0.00, 0.00, 0.00, 0.00, 0.00, 0.00, 0.00, 10:59:14.131
156, 135.90, 0.00, 0.00, -187500.02, 0.00, 0.00, 0.00, 0.00, 0.00, 0.00, 0.00, 10:59:14.136
157, 43.92, 0.00, 0.00, -187500.02, 0.00, 0.00, 0.00, 0.00, 0.00, 0.00, 0.00, 10:59:14.139
158, 7.44, 0.00, 0.00, -187500.02, 0.00, 0.00, 0.00, 0.00, 0.00, 0.00, 0.00, 10:59:14.143
159, 94.01, 0.00, 0.00, -187500.02, 0.00, 0.00, 0.00, 0.00, 0.00, 0.00, 0.00, 10:59:14.147
160, 137.98, 0.00, 0.00, -187500.02, 0.00, 0.00, 0.00, 0.00, 0.70, -0.16, 0.72, 10:59:14.150
161, 50.31, 0.00, 0.00, -187500.02, 0.00, 0.00, 0.00, 0.00, 0.00, 0.00, 0.00, 10:59:14.154
162, 7.76, 0.00, 0.00, -187500.02, 0.00, 0.00, 0.00, 0.00, 0.00, 0.00, 0.00, 10:59:14.158
163, 99.33, 0.00, 0.00, -187500.02, 0.00, 0.00, 0.00, 0.00, 0.00, 0.00, 0.00, 10:59:14.163
164, 150.49, 0.00, 0.00, -187500.02, 0.00, 0.00, 0.00, 0.00, 0.00, 0.00, 0.00, 10:59:14.167
165, 63.08, 0.00, 0.00, -187500.02, 0.00, 0.00, 0.00, 0.00, 0.00, 0.00, 0.00, 10:59:14.171
166, -12.23, 0.00, 0.00, -187500.02, 0.00, 0.00, 0.00, 0.00, 0.00, 0.00, 0.00, 10:59:14.175
167, 36.93, 0.00, 0.00, -187500.02, 0.00, 0.00, 0.00, 0.00, 0.00, 0.00, 0.00, 10:59:14.178
168, 112.12, 0.00, 0.00, -187500.02, 0.00, 0.00, 0.00, 0.00, 0.00, 0.00, 0.00, 10:59:14.182
169, 50.87, 0.00, 0.00, -187500.02, 0.00, 0.00, 0.00, 0.00, 0.70, -0.19, 0.71, 10:59:14.187
170, -20.72, 0.00, 0.00, -187500.02, 0.00, 0.00, 0.00, 0.00, 0.00, 0.00, 0.00, 10:59:14.191
171, 57.56, 0.00, 0.00, -187500.02, 0.00, 0.00, 0.00, 0.00, 0.00, 0.00, 0.00, 10:59:14.195
172, 152.17, 0.00, 0.00, -187500.02, 0.00, 0.00, 0.00, 0.00, 0.00, 0.00, 0.00, 10:59:14.198
173, 97.48, 0.00, 0.00, -187500.02, 0.00, 0.00, 0.00, 0.00, 0.00, 0.00, 0.00, 10:59:14.202
174, 1.99, 0.00, 0.00, -187500.02, 0.00, 0.00, 0.00, 0.00, 0.00, 0.00, 0.00, 10:59:14.207
175, 20.52, 0.00, 0.00, -187500.02, 0.00, 0.00, 0.00, 0.00, 0.00, 0.00, 0.00, 10:59:14.213
176, 109.68, 0.00, 0.00, -187500.02, 0.00, 0.00, 0.00, 0.00, 0.00, 0.00, 0.00, 10:59:14.215
177, 99.44, 0.00, 0.00, -187500.02, 0.00, 0.00, 0.00, 0.00, 0.00, 0.00, 0.00, 10:59:14.219
178, 8.67, 0.00, 0.00, -187500.02, 0.00, 0.00, 0.00, 0.00, 0.00, 0.00, 0.00, 10:59:14.223
179, 18.46, 0.00, 0.00, -187500.02, 0.00, 0.00, 0.00, 0.00, 0.69, -0.19, 0.71, 10:59:14.226
180, 130.18, 0.00, 0.00, -187500.02, 0.00, 0.00, 0.00, 0.00, 0.00, 0.00, 0.00, 10:59:14.230
181, 146.09, 0.00, 0.00, -187500.02, 0.00, 0.00, 0.00, 0.00, 0.00, 0.00, 0.00, 10:59:14.235
182, 39.52, 0.00, 0.00, -187500.02, 0.00, 0.00, 0.00, 0.00, 0.00, 0.00, 0.00, 10:59:14.238
183, -4.49, 0.00, 0.00, -187500.02, 0.00, 0.00, 0.00, 0.00, 0.00, 0.00, 0.00, 10:59:14.242
184, 99.22, 0.00, 0.00, -187500.02, 0.00, 0.00, 0.00, 0.00, 0.00, 0.00, 0.00, 10:59:14.247
185, 137.11, 0.00, 0.00, -187500.02, 0.00, 0.00, 0.00, 0.00, 0.00, 0.00, 0.00, 10:59:14.251
186, 59.46, 0.00, 0.00, -187500.02, 0.00, 0.00, 0.00, 0.00, 0.00, 0.00, 0.00, 10:59:14.254
187, 24.16, 0.00, 0.00, -187500.02, 0.00, 0.00, 0.00, 0.00, 0.00, 0.00, 0.00, 10:59:14.258
188, 115.36, 0.00, 0.00, -187500.02, 0.00, 0.00, 0.00, 0.00, 0.00, 0.00, 0.00, 10:59:14.262
189, 172.26, 0.00, 0.00, -187500.02, 0.00, 0.00, 0.00, 0.00, 0.68, -0.21, 0.71, 10:59:14.266
190, 76.02, 0.00, 0.00, -187500.02, 0.00, 0.00, 0.00, 0.00, 0.00, 0.00, 0.00, 10:59:14.271
191, -29.68, 0.00, 0.00, -187500.02, 0.00, 0.00, 0.00, 0.00, 0.00, 0.00, 0.00, 10:59:14.275
192, 37.66, 0.00, 0.00, -187500.02, 0.00, 0.00, 0.00, 0.00, 0.00, 0.00, 0.00, 10:59:14.280
193, 127.45, 0.00, 0.00, -187500.02, 0.00, 0.00, 0.00, 0.00, 0.00, 0.00, 0.00, 10:59:14.282
194, 73.83, 0.00, 0.00, -187500.02, 0.00, 0.00, 0.00, 0.00, 0.00, 0.00, 0.00, 10:59:14.286
195, 4.83, 0.00, 0.00, -187500.02, 0.00, 0.00, 0.00, 0.00, 0.00, 0.00, 0.00, 10:59:14.291
196, 55.97, 0.00, 0.00, -187500.02, 0.00, 0.00, 0.00, 0.00, 0.00, 0.00, 0.00, 10:59:14.295
197, 149.94, 0.00, 0.00, -187500.02, 0.00, 0.00, 0.00, 0.00, 0.00, 0.00, 0.00, 10:59:14.299
198, 112.50, 0.00, 0.00, -187500.02, 0.00, 0.00, 0.00, 0.00, 0.00, 0.00, 0.00, 10:59:14.303
199, 3.08, 0.00, 0.00, -187500.02, 0.00, 0.00, 0.00, 0.00, 0.67, -0.21, 0.71, 10:59:14.307
200, 2.21, 0.00, 0.00, -187500.02, 0.00, 0.00, 0.00, 0.00, 0.00, 0.00, 0.00, 10:59:14.311
201, 108.41, 0.00, 0.00, -187500.02, 0.00, 0.00, 0.00, 0.00, 0.00, 0.00, 0.00, 10:59:14.314
202, 107.02, 0.00, 0.00, -187500.02, 0.00, 0.00, 0.00, 0.00, 0.00, 0.00, 0.00, 10:59:14.318
203, 19.07, 0.00, 0.00, -187500.02, 0.00, 0.00, 0.00, 0.00, 0.00, 0.00, 0.00, 10:59:14.322
204, 24.23, 0.00, 0.00, -187500.02, 0.00, 0.00, 0.00, 0.00, 0.00, 0.00, 0.00, 10:59:14.327
205, 131.83, 0.00, 0.00, -187500.02, 0.00, 0.00, 0.00, 0.00, 0.00, 0.00, 0.00, 10:59:14.332
206, 155.21, 0.00, 0.00, -187500.02, 0.00, 0.00, 0.00, 0.00, 0.00, 0.00, 0.00, 10:59:14.334
207, 41.86, 0.00, 0.00, -187500.02, 0.00, 0.00, 0.00, 0.00, 0.00, 0.00, 0.00, 10:59:14.338
208, -8.74, 0.00, 0.00, -187500.02, 0.00, 0.00, 0.00, 0.00, 0.68, -0.21, 0.73, 10:59:14.342
209, 101.23, 0.00, 0.00, -187500.02, 0.00, 0.00, 0.00, 0.00, 0.00, 0.00, 0.00, 10:59:14.346
210, 153.62, 0.00, 0.00, -187500.02, 0.00, 0.00, 0.00, 0.00, 0.00, 0.00, 0.00, 10:59:14.351
211, 70.39, 0.00, 0.00, -187500.02, 0.00, 0.00, 0.00, 0.00, 0.00, 0.00, 0.00, 10:59:14.354
212, 27.83, 0.00, 0.00, -187500.02, 0.00, 0.00, 0.00, 0.00, 0.00, 0.00, 0.00, 10:59:14.359
213, 117.75, 0.00, 0.00, -187500.02, 0.00, 0.00, 0.00, 0.00, 0.00, 0.00, 0.00, 10:59:14.362
214, 181.21, 0.00, 0.00, -187500.02, 0.00, 0.00, 0.00, 0.00, 0.00, 0.00, 0.00, 10:59:14.366
215, 103.53, 0.00, 0.00, -187500.02, 0.00, 0.00, 0.00, 0.00, 0.00, 0.00, 0.00, 10:59:14.371
216, 8.00, 0.00, 0.00, -187500.02, 0.00, 0.00, 0.00, 0.00, 0.00, 0.00, 0.00, 10:59:14.375
217, 73.00, 0.00, 0.00, -187500.02, 0.00, 0.00, 0.00, 0.00, 0.00, 0.00, 0.00, 10:59:14.378
218, 168.60, 0.00, 0.00, -187500.02, 0.00, 0.00, 0.00, 0.00, 0.68, -0.21, 0.72, 10:59:14.382
219, 116.54, 0.00, 0.00, -187500.02, 0.00, 0.00, 0.00, 0.00, 0.00, 0.00, 0.00, 10:59:14.387
220, 33.75, 0.00, 0.00, -187500.02, 0.00, 0.00, 0.00, 0.00, 0.00, 0.00, 0.00, 10:59:14.391
221, 76.53, 0.00, 0.00, -187500.02, 0.00, 0.00, 0.00, 0.00, 0.00, 0.00, 0.00, 10:59:14.395
222, 187.60, 0.00, 0.00, -187500.02, 0.00, 0.00, 0.00, 0.00, 0.00, 0.00, 0.00, 10:59:14.398
223, 159.68, 0.00, 0.00, -187500.02, 0.00, 0.00, 0.00, 0.00, 0.00, 0.00, 0.00, 10:59:14.402
224, 45.17, 0.00, 0.00, -187500.02, 0.00, 0.00, 0.00, 0.00, 0.00, 0.00, 0.00, 10:59:14.406
225, 40.19, 0.00, 0.00, -187500.02, 0.00, 0.00, 0.00, 0.00, 0.00, 0.00, 0.00, 10:59:14.411
226, 149.89, 0.00, 0.00, -187500.02, 0.00, 0.00, 0.00, 0.00, 0.00, 0.00, 0.00, 10:59:14.416
227, 155.30, 0.00, 0.00, -187500.02, 0.00, 0.00, 0.00, 0.00, 0.00, 0.00, 0.00, 10:59:14.418
228, 58.47, 0.00, 0.00, -187500.02, 0.00, 0.00, 0.00, 0.00, 0.69, -0.15, 0.74, 10:59:14.422
229, 49.24, 0.00, 0.00, -187500.02, 0.00, 0.00, 0.00, 0.00, 0.00, 0.00, 0.00, 10:59:14.427
230, 154.09, 0.00, 0.00, -187500.02, 0.00, 0.00, 0.00, 0.00, 0.00, 0.00, 0.00, 10:59:14.430
231, 176.56, 0.00, 0.00, -187500.02, 0.00, 0.00, 0.00, 0.00, 0.00, 0.00, 0.00, 10:59:14.435
232, 79.46, 0.00, 0.00, -187500.02, 0.00, 0.00, 0.00, 0.00, 0.00, 0.00, 0.00, 10:59:14.439
233, 21.82, 0.00, 0.00, -187500.02, 0.00, 0.00, 0.00, 0.00, 0.00, 0.00, 0.00, 10:59:14.443
234, 100.49, 0.00, 0.00, -187500.02, 0.00, 0.00, 0.00, 0.00, 0.00, 0.00, 0.00, 10:59:14.445
235, 158.79, 0.00, 0.00, -187500.02, 0.00, 0.00, 0.00, 0.00, 0.00, 0.00, 0.00, 10:59:14.450
236, 86.43, 0.00, 0.00, -187500.02, 0.00, 0.00, 0.00, 0.00, 0.00, 0.00, 0.00, 10:59:14.454
237, 29.28, 0.00, 0.00, -187500.02, 0.00, 0.00, 0.00, 0.00, 0.00, 0.00, 0.00, 10:59:14.458
238, 106.51, 0.00, 0.00, -187500.02, 0.00, 0.00, 0.00, 0.00, 0.70, -0.17, 0.72, 10:59:14.462
239, 179.44, 0.00, 0.00, -187500.02, 0.00, 0.00, 0.00, 0.00, 0.00, 0.00, 0.00, 10:59:14.467
240, 114.73, 0.00, 0.00, -187500.02, 0.00, 0.00, 0.00, 0.00, 0.00, 0.00, 0.00, 10:59:14.471
241, 28.57, 0.00, 0.00, -187500.02, 0.00, 0.00, 0.00, 0.00, 0.00, 0.00, 0.00, 10:59:14.474
242, 52.97, 0.00, 0.00, -187500.02, 0.00, 0.00, 0.00, 0.00, 0.00, 0.00, 0.00, 10:59:14.477
243, 143.70, 0.00, 0.00, -187500.02, 0.00, 0.00, 0.00, 0.00, 0.00, 0.00, 0.00, 10:59:14.482
244, 112.16, 0.00, 0.00, -187500.02, 0.00, 0.00, 0.00, 0.00, 0.00, 0.00, 0.00, 10:59:14.487
245, 19.02, 0.00, 0.00, -187500.02, 0.00, 0.00, 0.00, 0.00, 0.00, 0.00, 0.00, 10:59:14.490
246, 46.16, 0.00, 0.00, -187500.02, 0.00, 0.00, 0.00, 0.00, 0.00, 0.00, 0.00, 10:59:14.494
247, 146.69, 0.00, 0.00, -187500.02, 0.00, 0.00, 0.00, 0.00, 0.00, 0.00, 0.00, 10:59:14.499
248, 136.10, 0.00, 0.00, -187500.02, 0.00, 0.00, 0.00, 0.00, 0.69, -0.14, 0.71, 10:59:14.501
249, 27.92, 0.00, 0.00, -187500.02, 0.00, 0.00, 0.00, 0.00, 0.00, 0.00, 0.00, 10:59:14.505
250, 7.64, 0.00, 0.00, -187500.02, 0.00, 0.00, 0.00, 0.00, 0.00, 0.00, 0.00, 10:59:14.510
251, 106.84, 0.00, 0.00, -187500.02, 0.00, 0.00, 0.00, 0.00, 0.00, 0.00, 0.00, 10:59:14.514
252, 129.19, 0.00, 0.00, -187500.02, 0.00, 0.00, 0.00, 0.00, 0.00, 0.00, 0.00, 10:59:14.518
253, 44.35, 0.00, 0.00, -187500.02, 0.00, 0.00, 0.00, 0.00, 0.00, 0.00, 0.00, 10:59:14.523
254, 34.73, 0.00, 0.00, -187500.02, 0.00, 0.00, 0.00, 0.00, 0.00, 0.00, 0.00, 10:59:14.527
255, 128.99, 0.00, 0.00, -187500.02, 0.00, 0.00, 0.00, 0.00, 0.00, 0.00, 0.00, 10:59:14.529
0, 163.26, 0.00, 0.00, -187500.02, 0.00, 0.00, 0.00, 0.00, 0.00, 0.00, 0.00, 10:59:14.534
1, 70.30, 0.00, 0.00, -187500.02, 0.00, 0.00, 0.00, 0.00, 0.70, -0.12, 0.73, 10:59:14.538
2, -0.83, 0.00, 0.00, -187500.02, 0.00, 0.00, 0.00, 0.00, 0.00, 0.00, 0.00, 10:59:14.542
3, 83.06, 0.00, 0.00, -187500.02, 0.00, 0.00, 0.00, 0.00, 0.00, 0.00, 0.00, 10:59:14.547
4, 138.67, 0.00, 0.00, -187500.02, 0.00, 0.00, 0.00, 0.00, 0.00, 0.00, 0.00, 10:59:14.549
5, 77.65, 0.00, 0.00, -187500.02, 0.00, 0.00, 0.00, 0.00, 0.00, 0.00, 0.00, 10:59:14.554
6, 20.54, 0.00, 0.00, -187500.02, 0.00, 0.00, 0.00, 0.00, 0.00, 0.00, 0.00, 10:59:14.558
7, 90.26, 0.00, 0.00, -187500.02, 0.00, 0.00, 0.00, 0.00, 0.00, 0.00, 0.00, 10:59:14.561
8, 164.04, 0.00, 0.00, -187500.02, 0.00, 0.00, 0.00, 0.00, 0.00, 0.00, 0.00, 10:59:14.566
9, 93.05, 0.00, 0.00, -187500.02, 0.00, 0.00, 0.00, 0.00, 0.00, 0.00, 0.00, 10:59:14.571
10, -2.93, 0.00, 0.00, -187500.02, 0.00, 0.00, 0.00, 0.00, 0.00, 0.00, 0.00, 10:59:14.575
11, 46.65, 0.00, 0.00, -187500.02, 0.00, 0.00, 0.00, 0.00, 0.70, -0.12, 0.72, 10:59:14.586
12, 150.25, 0.00, 0.00, -187500.02, 0.00, 0.00, 0.00, 0.00, 0.00, 0.00, 0.00, 10:59:14.586
13, 128.16, 0.00, 0.00, -187500.02, 0.00, 0.00, 0.00, 0.00, 0.00, 0.00, 0.00, 10:59:14.586
14, 51.99, 0.00, 0.00, -187500.02, 0.00, 0.00, 0.00, 0.00, 0.00, 0.00, 0.00, 10:59:14.590
15, 70.72, 0.00, 0.00, -187500.02, 0.00, 0.00, 0.00, 0.00, 0.00, 0.00, 0.00, 10:59:14.593
16, 163.64, 0.00, 0.00, -187500.02, 0.00, 0.00, 0.00, 0.00, 0.00, 0.00, 0.00, 10:59:14.598
17, 156.33, 0.00, 0.00, -187500.02, 0.00, 0.00, 0.00, 0.00, 0.00, 0.00, 0.00, 10:59:14.602
18, 40.01, 0.00, 0.00, -187500.02, 0.00, 0.00, 0.00, 0.00, 0.00, 0.00, 0.00, 10:59:14.606
19, 7.80, 0.00, 0.00, -187500.02, 0.00, 0.00, 0.00, 0.00, 0.00, 0.00, 0.00, 10:59:14.610
20, 101.14, 0.00, 0.00, -187500.02, 0.00, 0.00, 0.00, 0.00, 0.00, 0.00, 0.00, 10:59:14.614
21, 132.39, 0.00, 0.00, -187500.02, 0.00, 0.00, 0.00, 0.00, 0.71, -0.09, 0.70, 10:59:14.617
22, 65.62, 0.00, 0.00, -187500.02, 0.00, 0.00, 0.00, 0.00, 0.00, 0.00, 0.00, 10:59:14.621
23, 37.91, 0.00, 0.00, -187500.02, 0.00, 0.00, 0.00, 0.00, 0.00, 0.00, 0.00, 10:59:14.626
24, 118.08, 0.00, 0.00, -187500.02, 0.00, 0.00, 0.00, 0.00, 0.00, 0.00, 0.00, 10:59:14.630
25, 170.36, 0.00, 0.00, -187500.02, 0.00, 0.00, 0.00, 0.00, 0.00, 0.00, 0.00, 10:59:14.634
26, 76.80, 0.00, 0.00, -187500.02, 0.00, 0.00, 0.00, 0.00, 0.00, 0.00, 0.00, 10:59:14.638
27, -5.23, 0.00, 0.00, -187500.02, 0.00, 0.00, 0.00, 0.00, 0.00, 0.00, 0.00, 10:59:14.642
28, 76.40, 0.00, 0.00, -187500.02, 0.00, 0.00, 0.00, 0.00, 0.00, 0.00, 0.00, 10:59:14.645
29, 153.44, 0.00, 0.00, -187500.02, 0.00, 0.00, 0.00, 0.00, 0.00, 0.00, 0.00, 10:59:14.650
30, 95.26, 0.00, 0.00, -187500.02, 0.00, 0.00, 0.00, 0.00, 0.00, 0.00, 0.00, 10:59:14.654
31, 26.69, 0.00, 0.00, -187500.02, 0.00, 0.00, 0.00, 0.00, 0.73, -0.10, 0.67, 10:59:14.658
32, 79.71, 0.00, 0.00, -187500.02, 0.00, 0.00, 0.00, 0.00, 0.00, 0.00, 0.00, 10:59:14.662
33, 163.68, 0.00, 0.00, -187500.02, 0.00, 0.00, 0.00, 0.00, 0.00, 0.00, 0.00, 10:59:14.666
34, 109.93, 0.00, 0.00, -187500.02, 0.00, 0.00, 0.00, 0.00, 0.00, 0.00, 0.00, 10:59:14.669
35, 1.14, 0.00, 0.00, -187500.02, 0.00, 0.00, 0.00, 0.00, 0.00, 0.00, 0.00, 10:59:14.673
36, 19.13, 0.00, 0.00, -187500.02, 0.00, 0.00, 0.00, 0.00, 0.00, 0.00, 0.00, 10:59:14.677
37, 116.68, 0.00, 0.00, -187500.02, 0.00, 0.00, 0.00, 0.00, 0.00, 0.00, 0.00, 10:59:14.682
38, 115.96, 0.00, 0.00, -187500.02, 0.00, 0.00, 0.00, 0.00, 0.00, 0.00, 0.00, 10:59:14.686
39, 36.59, 0.00, 0.00, -187500.02, 0.00, 0.00, 0.00, 0.00, 0.00, 0.00, 0.00, 10:59:14.690
40, 44.95, 0.00, 0.00, -187500.02, 0.00, 0.00, 0.00, 0.00, 0.00, 0.00, 0.00, 10:59:14.693
41, 136.50, 0.00, 0.00, -187500.02, 0.00, 0.00, 0.00, 0.00, 0.75, -0.13, 0.63, 10:59:14.698
42, 128.84, 0.00, 0.00, -187500.02, 0.00, 0.00, 0.00, 0.00, 0.00, 0.00, 0.00, 10:59:14.702
43, 7.78, 0.00, 0.00, -187500.02, 0.00, 0.00, 0.00, 0.00, 0.00, 0.00, 0.00, 10:59:14.706
44, -25.95, 0.00, 0.00, -187500.02, 0.00, 0.00, 0.00, 0.00, 0.00, 0.00, 0.00, 10:59:14.711
45, 77.02, 0.00, 0.00, -187500.02, 0.00, 0.00, 0.00, 0.00, 0.00, 0.00, 0.00, 10:59:14.714
46, 116.74, 0.00, 0.00, -187500.02, 0.00, 0.00, 0.00, 0.00, 0.00, 0.00, 0.00, 10:59:14.717
47, 42.67, 0.00, 0.00, -187500.02, 0.00, 0.00, 0.00, 0.00, 0.00, 0.00, 0.00, 10:59:14.722
48, 15.87, 0.00, 0.00, -187500.02, 0.00, 0.00, 0.00, 0.00, 0.00, 0.00, 0.00, 10:59:14.726
49, 98.59, 0.00, 0.00, -187500.02, 0.00, 0.00, 0.00, 0.00, 0.00, 0.00, 0.00, 10:59:14.729
50, 142.18, 0.00, 0.00, -187500.02, 0.00, 0.00, 0.00, 0.00, 0.76, -0.13, 0.61, 10:59:14.734
51, 42.98, 0.00, 0.00, -187500.02, 0.00, 0.00, 0.00, 0.00, 0.00, 0.00, 0.00, 10:59:14.738
52, -11.09, 0.00, 0.00, -187500.02, 0.00, 0.00, 0.00, 0.00, 0.00, 0.00, 0.00, 10:59:14.742
53, 53.98, 0.00, 0.00, -187500.02, 0.00, 0.00, 0.00, 0.00, 0.00, 0.00, 0.00, 10:59:14.745
54, 126.40, 0.00, 0.00, -187500.02, 0.00, 0.00, 0.00, 0.00, 0.00, 0.00, 0.00, 10:59:14.750
55, 82.21, 0.00, 0.00, -187500.02, 0.00, 0.00, 0.00, 0.00, 0.00, 0.00, 0.00, 10:59:14.753
56, 18.98, 0.00, 0.00, -187500.02, 0.00, 0.00, 0.00, 0.00, 0.00, 0.00, 0.00, 10:59:14.758
57, 52.97, 0.00, 0.00, -187500.02, 0.00, 0.00, 0.00, 0.00, 0.00, 0.00, 0.00, 10:59:14.762
58, 112.14, 0.00, 0.00, -187500.02, 0.00, 0.00, 0.00, 0.00, 0.00, 0.00, 0.00, 10:59:14.767
59, 85.70, 0.00, 0.00, -187500.02, 0.00, 0.00, 0.00, 0.00, 0.00, 0.00, 0.00, 10:59:14.769
60, 13.37, 0.00, 0.00, -187500.02, 0.00, 0.00, 0.00, 0.00, 0.79, -0.11, 0.62, 10:59:14.773
61, 54.11, 0.00, 0.00, -187500.02, 0.00, 0.00, 0.00, 0.00, 0.00, 0.00, 0.00, 10:59:14.778
62, 149.18, 0.00, 0.00, -187500.02, 0.00, 0.00, 0.00, 0.00, 0.00, 0.00, 0.00, 10:59:14.782
63, 147.16, 0.00, 0.00, -187500.02, 0.00, 0.00, 0.00, 0.00, 0.00, 0.00, 0.00, 10:59:14.786
64, 39.45, 0.00, 0.00, -187500.02, 0.00, 0.00, 0.00, 0.00, 0.00, 0.00, 0.00, 10:59:14.789
65, 1.63, 0.00, 0.00, -187500.02, 0.00, 0.00, 0.00, 0.00, 0.00, 0.00, 0.00, 10:59:14.794
66, 79.55, 0.00, 0.00, -187500.02, 0.00, 0.00, 0.00, 0.00, 0.00, 0.00, 0.00, 10:59:14.797
67, 107.31, 0.00, 0.00, -187500.02, 0.00, 0.00, 0.00, 0.00, 0.00, 0.00, 0.00, 10:59:14.800
68, 37.42, 0.00, 0.00, -187500.02, 0.00, 0.00, 0.00, 0.00, 0.00, 0.00, 0.00, 10:59:14.806
69, 20.56, 0.00, 0.00, -187500.02, 0.00, 0.00, 0.00, 0.00, 0.00, 0.00, 0.00, 10:59:14.811
70, 113.73, 0.00, 0.00, -187500.02, 0.00, 0.00, 0.00, 0.00, 0.77, -0.10, 0.60, 10:59:14.814
71, 150.90, 0.00, 0.00, -187500.02, 0.00, 0.00, 0.00, 0.00, 0.00, 0.00, 0.00, 10:59:14.817
72, 58.52, 0.00, 0.00, -187500.02, 0.00, 0.00, 0.00, 0.00, 0.00, 0.00, 0.00, 10:59:14.822
73, -21.14, 0.00, 0.00, -187500.02, 0.00, 0.00, 0.00, 0.00, 0.00, 0.00, 0.00, 10:59:14.826
74, 38.89, 0.00, 0.00, -187500.02, 0.00, 0.00, 0.00, 0.00, 0.00, 0.00, 0.00, 10:59:14.830
75, 96.07, 0.00, 0.00, -187500.02, 0.00, 0.00, 0.00, 0.00, 0.00, 0.00, 0.00, 10:59:14.834
76, 22.87, 0.00, 0.00, -187500.02, 0.00, 0.00, 0.00, 0.00, 0.00, 0.00, 0.00, 10:59:14.837
77, -33.42, 0.00, 0.00, -187500.02, 0.00, 0.00, 0.00, 0.00, 0.00, 0.00, 0.00, 10:59:14.841
78, 32.43, 0.00, 0.00, -187500.02, 0.00, 0.00, 0.00, 0.00, 0.00, 0.00, 0.00, 10:59:14.845
79, 132.12, 0.00, 0.00, -187500.02, 0.00, 0.00, 0.00, 0.00, 0.00, 0.00, 0.00, 10:59:14.850
80, 102.89, 0.00, 0.00, -187500.02, 0.00, 0.00, 0.00, 0.00, 0.78, -0.12, 0.62, 10:59:14.854
81, 16.18, 0.00, 0.00, -187500.02, 0.00, 0.00, 0.00, 0.00, 0.00, 0.00, 0.00, 10:59:14.858
82, 29.53, 0.00, 0.00, -187500.02, 0.00, 0.00, 0.00, 0.00, 0.00, 0.00, 0.00, 10:59:14.861
83, 110.51, 0.00, 0.00, -187500.02, 0.00, 0.00, 0.00, 0.00, 0.00, 0.00, 0.00, 10:59:14.865
84, 91.33, 0.00, 0.00, -187500.02, 0.00, 0.00, 0.00, 0.00, 0.00, 0.00, 0.00, 10:59:14.869
85, -3.55, 0.00, 0.00, -187500.02, 0.00, 0.00, 0.00, 0.00, 0.00, 0.00, 0.00, 10:59:14.872
86, -8.29, 0.00, 0.00, -187500.02, 0.00, 0.00, 0.00, 0.00, 0.00, 0.00, 0.00, 10:59:14.878
87, 84.13, 0.00, 0.00, -187500.02, 0.00, 0.00, 0.00, 0.00, 0.00, 0.00, 0.00, 10:59:14.889
88, 104.03, 0.00, 0.00, -187500.02, 0.00, 0.00, 0.00, 0.00, 0.00, 0.00, 0.00, 10:59:14.890
89, 24.30, 0.00, 0.00, -187500.02, 0.00, 0.00, 0.00, 0.00, 0.00, 0.00, 0.00, 10:59:14.890
90, 2.01, 0.00, 0.00, -187500.02, 0.00, 0.00, 0.00, 0.00, 0.76, -0.12, 0.62, 10:59:14.893
91, 70.32, 0.00, 0.00, -187500.02, 0.00, 0.00, 0.00, 0.00, 0.00, 0.00, 0.00, 10:59:14.897
92, 93.72, 0.00, 0.00, -187500.02, 0.00, 0.00, 0.00, 0.00, 0.00, 0.00, 0.00, 10:59:14.901
93, 22.42, 0.00, 0.00, -187500.02, 0.00, 0.00, 0.00, 0.00, 0.00, 0.00, 0.00, 10:59:14.906
94, -8.29, 0.00, 0.00, -187500.02, 0.00, 0.00, 0.00, 0.00, 0.00, 0.00, 0.00, 10:59:14.910
95, 67.59, 0.00, 0.00, -187500.02, 0.00, 0.00, 0.00, 0.00, 0.00, 0.00, 0.00, 10:59:14.914
96, 120.21, 0.00, 0.00, -187500.02, 0.00, 0.00, 0.00, 0.00, 0.00, 0.00, 0.00, 10:59:14.918
97, 46.85, 0.00, 0.00, -187500.02, 0.00, 0.00, 0.00, 0.00, 0.00, 0.00, 0.00, 10:59:14.921
98, -41.75, 0.00, 0.00, -187500.02, 0.00, 0.00, 0.00, 0.00, 0.00, 0.00, 0.00, 10:59:14.925
99, 10.04, 0.00, 0.00, -187500.02, 0.00, 0.00, 0.00, 0.00, 0.77, -0.13, 0.64, 10:59:14.929
100, 89.03, 0.00, 0.00, -187500.02, 0.00, 0.00, 0.00, 0.00, 0.00, 0.00, 0.00, 10:59:14.933
101, 43.27, 0.00, 0.00, -187500.02, 0.00, 0.00, 0.00, 0.00, 0.00, 0.00, 0.00, 10:59:14.938
102, -25.46, 0.00, 0.00, -187500.02, 0.00, 0.00, 0.00, 0.00, 0.00, 0.00, 0.00, 10:59:14.942
103, 23.16, 0.00, 0.00, -187500.02, 0.00, 0.00, 0.00, 0.00, 0.00, 0.00, 0.00, 10:59:14.945
104, 109.50, 0.00, 0.00, -187500.02, 0.00, 0.00, 0.00, 0.00, 0.00, 0.00, 0.00, 10:59:14.949
105, 77.94, 0.00, 0.00, -187500.02, 0.00, 0.00, 0.00, 0.00, 0.00, 0.00, 0.00, 10:59:14.953
106, -29.88, 0.00, 0.00, -187500.02, 0.00, 0.00, 0.00, 0.00, 0.00, 0.00, 0.00, 10:59:14.957
107, -28.07, 0.00, 0.00, -187500.02, 0.00, 0.00, 0.00, 0.00, 0.00, 0.00, 0.00, 10:59:14.960
108, 60.93, 0.00, 0.00, -187500.02, 0.00, 0.00, 0.00, 0.00, 0.00, 0.00, 0.00, 10:59:14.966
109, 62.85, 0.00, 0.00, -187500.02, 0.00, 0.00, 0.00, 0.00, 0.76, -0.12, 0.65, 10:59:14.970
110, -19.58, 0.00, 0.00, -187500.02, 0.00, 0.00, 0.00, 0.00, 0.00, 0.00, 0.00, 10:59:14.973
111, -11.82, 0.00, 0.00, -187500.02, 0.00, 0.00, 0.00, 0.00, 0.00, 0.00, 0.00, 10:59:14.977
112, 78.92, 0.00, 0.00, -187500.02, 0.00, 0.00, 0.00, 0.00, 0.00, 0.00, 0.00, 10:59:14.982
113, 96.31, 0.00, 0.00, -187500.02, 0.00, 0.00, 0.00, 0.00, 0.00, 0.00, 0.00, 10:59:14.985
114, -7.51, 0.00, 0.00, -187500.02, 0.00, 0.00, 0.00, 0.00, 0.00, 0.00, 0.00, 10:59:14.989
115, -51.32, 0.00, 0.00, -187500.02, 0.00, 0.00, 0.00, 0.00, 0.00, 0.00, 0.00, 10:59:14.994
116, 37.46, 0.00, 0.00, -187500.02, 0.00, 0.00, 0.00, 0.00, 0.00, 0.00, 0.00, 10:59:14.997
117, 73.76, 0.00, 0.00, -187500.02, 0.00, 0.00, 0.00, 0.00, 0.00, 0.00, 0.00, 10:59:15.002
118, 12.18, 0.00, 0.00, -187500.02, 0.00, 0.00, 0.00, 0.00, 0.00, 0.00, 0.00, 10:59:15.005
119, -15.69, 0.00, 0.00, -187500.02, 0.00, 0.00, 0.00, 0.00, 0.75, -0.13, 0.65, 10:59:15.009
120, 64.40, 0.00, 0.00, -187500.02, 0.00, 0.00, 0.00, 0.00, 0.00, 0.00, 0.00, 10:59:15.013
121, 127.90, 0.00, 0.00, -187500.02, 0.00, 0.00, 0.00, 0.00, 0.00, 0.00, 0.00, 10:59:15.018
122, 46.13, 0.00, 0.00, -187500.02, 0.00, 0.00, 0.00, 0.00, 0.00, 0.00, 0.00, 10:59:15.023
123, -32.43, 0.00, 0.00, -187500.02, 0.00, 0.00, 0.00, 0.00, 0.00, 0.00, 0.00, 10:59:15.025
124, 17.79, 0.00, 0.00, -187500.02, 0.00, 0.00, 0.00, 0.00, 0.00, 0.00, 0.00, 10:59:15.029
125, 85.76, 0.00, 0.00, -187500.02, 0.00, 0.00, 0.00, 0.00, 0.00, 0.00, 0.00, 10:59:15.033
126, 35.74, 0.00, 0.00, -187500.02, 0.00, 0.00, 0.00, 0.00, 0.00, 0.00, 0.00, 10:59:15.038
127, -37.71, 0.00, 0.00, -187500.02, 0.00, 0.00, 0.00, 0.00, 0.00, 0.00, 0.00, 10:59:15.041
128, 5.83, 0.00, 0.00, -187500.02, 0.00, 0.00, 0.00, 0.00, 0.00, 0.00, 0.00, 10:59:15.045
129, 89.50, 0.00, 0.00, -187500.02, 0.00, 0.00, 0.00, 0.00, 0.75, -0.14, 0.65, 10:59:15.050
130, 49.08, 0.00, 0.00, -187500.02, 0.00, 0.00, 0.00, 0.00, 0.00, 0.00, 0.00, 10:59:15.054
131, -65.13, 0.00, 0.00, -187500.02, 0.00, 0.00, 0.00, 0.00, 0.00, 0.00, 0.00, 10:59:15.057
132, -52.12, 0.00, 0.00, -187500.02, 0.00, 0.00, 0.00, 0.00, 0.00, 0.00, 0.00, 10:59:15.061
133, 54.34, 0.00, 0.00, -187500.02, 0.00, 0.00, 0.00, 0.00, 0.00, 0.00, 0.00, 10:59:15.065
134, 47.16, 0.00, 0.00, -187500.02, 0.00, 0.00, 0.00, 0.00, 0.00, 0.00, 0.00, 10:59:15.069
135, -38.22, 0.00, 0.00, -187500.02, 0.00, 0.00, 0.00, 0.00, 0.00, 0.00, 0.00, 10:59:15.073
136, -27.47, 0.00, 0.00, -187500.02, 0.00, 0.00, 0.00, 0.00, 0.00, 0.00, 0.00, 10:59:15.078
137, 75.59, 0.00, 0.00, -187500.02, 0.00, 0.00, 0.00, 0.00, 0.00, 0.00, 0.00, 10:59:15.085
138, 91.17, 0.00, 0.00, -187500.02, 0.00, 0.00, 0.00, 0.00, 0.76, -0.14, 0.65, 10:59:15.085
139, -19.76, 0.00, 0.00, -187500.02, 0.00, 0.00, 0.00, 0.00, 0.00, 0.00, 0.00, 10:59:15.089
140, -75.28, 0.00, 0.00, -187500.02, 0.00, 0.00, 0.00, 0.00, 0.00, 0.00, 0.00, 10:59:15.093
141, 15.71, 0.00, 0.00, -187500.02, 0.00, 0.00, 0.00, 0.00, 0.00, 0.00, 0.00, 10:59:15.097
142, 65.69, 0.00, 0.00, -187500.02, 0.00, 0.00, 0.00, 0.00, 0.00, 0.00, 0.00, 10:59:15.102
143, -13.43, 0.00, 0.00, -187500.02, 0.00, 0.00, 0.00, 0.00, 0.00, 0.00, 0.00, 10:59:15.106
144, -58.36, 0.00, 0.00, -187500.02, 0.00, 0.00, 0.00, 0.00, 0.00, 0.00, 0.00, 10:59:15.109
145, 34.00, 0.00, 0.00, -187500.02, 0.00, 0.00, 0.00, 0.00, 0.00, 0.00, 0.00, 10:59:15.112
146, 97.97, 0.00, 0.00, -187500.02, 0.00, 0.00, 0.00, 0.00, 0.00, 0.00, 0.00, 10:59:15.117
147, -4.31, 0.00, 0.00, -187500.02, 0.00, 0.00, 0.00, 0.00, 0.00, 0.00, 0.00, 10:59:15.122
148, -78.32, 0.00, 0.00, -187500.02, 0.00, 0.00, 0.00, 0.00, 0.75, -0.15, 0.65, 10:59:15.125
149, -19.24, 0.00, 0.00, -187500.02, 0.00, 0.00, 0.00, 0.00, 0.00, 0.00, 0.00, 10:59:15.129
150, 63.97, 0.00, 0.00, -187500.02, 0.00, 0.00, 0.00, 0.00, 0.00, 0.00, 0.00, 10:59:15.133
151, 18.98, 0.00, 0.00, -187500.02, 0.00, 0.00, 0.00, 0.00, 0.00, 0.00, 0.00, 10:59:15.137
152, -51.83, 0.00, 0.00, -187500.02, 0.00, 0.00, 0.00, 0.00, 0.00, 0.00, 0.00, 10:59:15.140
153, -9.83, 0.00, 0.00, -187500.02, 0.00, 0.00, 0.00, 0.00, 0.00, 0.00, 0.00, 10:59:15.145
154, 41.89, 0.00, 0.00, -187500.02, 0.00, 0.00, 0.00, 0.00, 0.00, 0.00, 0.00, 10:59:15.150
155, 6.08, 0.00, 0.00, -187500.02, 0.00, 0.00, 0.00, 0.00, 0.00, 0.00, 0.00, 10:59:15.154
156, -69.94, 0.00, 0.00, -187500.02, 0.00, 0.00, 0.00, 0.00, 0.00, 0.00, 0.00, 10:59:15.157
157, -47.41, 0.00, 0.00, -187500.02, 0.00, 0.00, 0.00, 0.00, 0.00, 0.00, 0.00, 10:59:15.161
158, 53.89, 0.00, 0.00, -187500.02, 0.00, 0.00, 0.00, 0.00, 0.75, -0.16, 0.66, 10:59:15.164
159, 51.65, 0.00, 0.00, -187500.02, 0.00, 0.00, 0.00, 0.00, 0.00, 0.00, 0.00, 10:59:15.168
160, -36.37, 0.00, 0.00, -187500.02, 0.00, 0.00, 0.00, 0.00, 0.00, 0.00, 0.00, 10:59:15.173
161, -63.50, 0.00, 0.00, -187500.02, 0.00, 0.00, 0.00, 0.00, 0.00, 0.00, 0.00, 10:59:15.177
162, 13.52, 0.00, 0.00, -187500.02, 0.00, 0.00, 0.00, 0.00, 0.00, 0.00, 0.00, 10:59:15.181
163, 42.07, 0.00, 0.00, -187500.02, 0.00, 0.00, 0.00, 0.00, 0.00, 0.00, 0.00, 10:59:15.185
164, -32.57, 0.00, 0.00, -187500.02, 0.00, 0.00, 0.00, 0.00, 0.00, 0.00, 0.00, 10:59:15.188
165, -61.87, 0.00, 0.00, -187500.02, 0.00, 0.00, 0.00, 0.00, 0.00, 0.00, 0.00, 10:59:15.192
166, 29.59, 0.00, 0.00, -187500.02, 0.00, 0.00, 0.00, 0.00, 0.00, 0.00, 0.00, 10:59:15.196
167, 74.25, 0.00, 0.00, -187500.02, 0.00, 0.00, 0.00, 0.00, 0.00, 0.00, 0.00, 10:59:15.201
168, -29.75, 0.00, 0.00, -187500.02, 0.00, 0.00, 0.00, 0.00, 0.76, -0.15, 0.66, 10:59:15.206
169, -106.13, 0.00, 0.00, -187500.02, 0.00, 0.00, 0.00, 0.00, 0.00, 0.00, 0.00, 10:59:15.209
170, -36.97, 0.00, 0.00, -187500.02, 0.00, 0.00, 0.00, 0.00, 0.00, 0.00, 0.00, 10:59:15.213
171, 40.23, 0.00, 0.00, -187500.02, 0.00, 0.00, 0.00, 0.00, 0.00, 0.00, 0.00, 10:59:15.217
172, -19.69, 0.00, 0.00, -187500.02, 0.00, 0.00, 0.00, 0.00, 0.00, 0.00, 0.00, 10:59:15.220
173, -85.14, 0.00, 0.00, -187500.02, 0.00, 0.00, 0.00, 0.00, 0.00, 0.00, 0.00, 10:59:15.224
174, -24.16, 0.00, 0.00, -187500.02, 0.00, 0.00, 0.00, 0.00, 0.00, 0.00, 0.00, 10:59:15.233
175, 57.18, 0.00, 0.00, -187500.02, 0.00, 0.00, 0.00, 0.00, 0.00, 0.00, 0.00, 10:59:15.234
176, 7.53, 0.00, 0.00, -187500.02, 0.00, 0.00, 0.00, 0.00, 0.00, 0.00, 0.00, 10:59:15.238
177, -95.75, 0.00, 0.00, -187500.02, 0.00, 0.00, 0.00, 0.00, 0.00, 0.00, 0.00, 10:59:15.240
178, -72.87, 0.00, 0.00, -187500.02, 0.00, 0.00, 0.00, 0.00, 0.75, -0.14, 0.66, 10:59:15.244
179, 17.77, 0.00, 0.00, -187500.02, 0.00, 0.00, 0.00, 0.00, 0.00, 0.00, 0.00, 10:59:15.249
180, -2.48, 0.00, 0.00, -187500.02, 0.00, 0.00, 0.00, 0.00, 0.00, 0.00, 0.00, 10:59:15.252
181, -84.33, 0.00, 0.00, -187500.02, 0.00, 0.00, 0.00, 0.00, 0.00, 0.00, 0.00, 10:59:15.256
182, -67.79, 0.00, 0.00, -187500.02, 0.00, 0.00, 0.00, 0.00, 0.00, 0.00, 0.00, 10:59:15.262
183, 38.98, 0.00, 0.00, -187500.02, 0.00, 0.00, 0.00, 0.00, 0.00, 0.00, 0.00, 10:59:15.265
184, 44.03, 0.00, 0.00, -187500.02, 0.00, 0.00, 0.00, 0.00, 0.00, 0.00, 0.00, 10:59:15.269
185, -63.46, 0.00, 0.00, -187500.02, 0.00, 0.00, 0.00, 0.00, 0.00, 0.00, 0.00, 10:59:15.273
186, -99.31, 0.00, 0.00, -187500.02, 0.00, 0.00, 0.00, 0.00, 0.00, 0.00, 0.00, 10:59:15.277
187, -8.58, 0.00, 0.00, -187500.02, 0.00, 0.00, 0.00, 0.00, 0.75, -0.14, 0.65, 10:59:15.280
188, 25.55, 0.00, 0.00, -187500.02, 0.00, 0.00, 0.00, 0.00, 0.00, 0.00, 0.00, 10:59:15.287
189, -49.08, 0.00, 0.00, -187500.02, 0.00, 0.00, 0.00, 0.00, 0.00, 0.00, 0.00, 10:59:15.289
190, -80.00, 0.00, 0.00, -187500.02, 0.00, 0.00, 0.00, 0.00, 0.00, 0.00, 0.00, 10:59:15.293
191, 2.86, 0.00, 0.00, -187500.02, 0.00, 0.00, 0.00, 0.00, 0.00, 0.00, 0.00, 10:59:15.296
192, 52.28, 0.00, 0.00, -187500.02, 0.00, 0.00, 0.00, 0.00, 0.00, 0.00, 0.00, 10:59:15.300
193, -40.39, 0.00, 0.00, -187500.02, 0.00, 0.00, 0.00, 0.00, 0.00, 0.00, 0.00, 10:59:15.304
194, -120.43, 0.00, 0.00, -187500.02, 0.00, 0.00, 0.00, 0.00, 0.00, 0.00, 0.00, 10:59:15.309
195, -56.04, 0.00, 0.00, -187500.02, 0.00, 0.00, 0.00, 0.00, 0.00, 0.00, 0.00, 10:59:15.312
196, 15.22, 0.00, 0.00, -187500.02, 0.00, 0.00, 0.00, 0.00, 0.00, 0.00, 0.00, 10:59:15.316
197, -36.19, 0.00, 0.00, -187500.02, 0.00, 0.00, 0.00, 0.00, 0.75, -0.15, 0.66, 10:59:15.321
198, -101.03, 0.00, 0.00, -187500.02, 0.00, 0.00, 0.00, 0.00, 0.00, 0.00, 0.00, 10:59:15.325
199, -45.13, 0.00, 0.00, -187500.02, 0.00, 0.00, 0.00, 0.00, 0.00, 0.00, 0.00, 10:59:15.328
200, 39.99, 0.00, 0.00, -187500.02, 0.00, 0.00, 0.00, 0.00, 0.00, 0.00, 0.00, 10:59:15.332
201, -6.24, 0.00, 0.00, -187500.02, 0.00, 0.00, 0.00, 0.00, 0.00, 0.00, 0.00, 10:59:15.337
202, -113.59, 0.00, 0.00, -187500.02, 0.00, 0.00, 0.00, 0.00, 0.00, 0.00, 0.00, 10:59:15.341
203, -102.75, 0.00, 0.00, -187500.02, 0.00, 0.00, 0.00, 0.00, 0.00, 0.00, 0.00, 10:59:15.345
204, -4.07, 0.00, 0.00, -187500.02, 0.00, 0.00, 0.00, 0.00, 0.00, 0.00, 0.00, 10:59:15.349
205, -6.68, 0.00, 0.00, -187500.02, 0.00, 0.00, 0.00, 0.00, 0.00, 0.00, 0.00, 10:59:15.351
206, -87.71, 0.00, 0.00, -187500.02, 0.00, 0.00, 0.00, 0.00, 0.00, 0.00, 0.00, 10:59:15.356
207, -74.05, 0.00, 0.00, -187500.02, 0.00, 0.00, 0.00, 0.00, 0.75, -0.14, 0.66, 10:59:15.361
208, 26.00, 0.00, 0.00, -187500.02, 0.00, 0.00, 0.00, 0.00, 0.00, 0.00, 0.00, 10:59:15.364
209, 32.61, 0.00, 0.00, -187500.02, 0.00, 0.00, 0.00, 0.00, 0.00, 0.00, 0.00, 10:59:15.368
210, -84.18, 0.00, 0.00, -187500.02, 0.00, 0.00, 0.00, 0.00, 0.00, 0.00, 0.00, 10:59:15.373
211, -121.10, 0.00, 0.00, -187500.02, 0.00, 0.00, 0.00, 0.00, 0.00, 0.00, 0.00, 10:59:15.376
212, -28.21, 0.00, 0.00, -187500.02, 0.00, 0.00, 0.00, 0.00, 0.00, 0.00, 0.00, 10:59:15.380
213, 5.30, 0.00, 0.00, -187500.02, 0.00, 0.00, 0.00, 0.00, 0.00, 0.00, 0.00, 10:59:15.384
214, -68.15, 0.00, 0.00, -187500.02, 0.00, 0.00, 0.00, 0.00, 0.00, 0.00, 0.00, 10:59:15.388
215, -94.15, 0.00, 0.00, -187500.02, 0.00, 0.00, 0.00, 0.00, 0.00, 0.00, 0.00, 10:59:15.393
216, -2.62, 0.00, 0.00, -187500.02, 0.00, 0.00, 0.00, 0.00, 0.00, 0.00, 0.00, 10:59:15.397
217, 48.68, 0.00, 0.00, -187500.02, 0.00, 0.00, 0.00, 0.00, 0.74, -0.14, 0.67, 10:59:15.402
218, -41.15, 0.00, 0.00, -187500.02, 0.00, 0.00, 0.00, 0.00, 0.00, 0.00, 0.00, 10:59:15.404
219, -125.51, 0.00, 0.00, -187500.02, 0.00, 0.00, 0.00, 0.00, 0.00, 0.00, 0.00, 10:59:15.408
220, -54.36, 0.00, 0.00, -187500.02, 0.00, 0.00, 0.00, 0.00, 0.00, 0.00, 0.00, 10:59:15.413
221, 28.52, 0.00, 0.00, -187500.02, 0.00, 0.00, 0.00, 0.00, 0.00, 0.00, 0.00, 10:59:15.417
222, -20.50, 0.00, 0.00, -187500.02, 0.00, 0.00, 0.00, 0.00, 0.00, 0.00, 0.00, 10:59:15.420
223, -81.63, 0.00, 0.00, -187500.02, 0.00, 0.00, 0.00, 0.00, 0.00, 0.00, 0.00, 10:59:15.424
224, -34.71, 0.00, 0.00, -187500.02, 0.00, 0.00, 0.00, 0.00, 0.00, 0.00, 0.00, 10:59:15.429
225, 45.11, 0.00, 0.00, -187500.02, 0.00, 0.00, 0.00, 0.00, 0.00, 0.00, 0.00, 10:59:15.433
226, -18.69, 0.00, 0.00, -187500.02, 0.00, 0.00, 0.00, 0.00, 0.00, 0.00, 0.00, 10:59:15.435
227, -136.35, 0.00, 0.00, -187500.02, 0.00, 0.00, 0.00, 0.00, 0.74, -0.13, 0.68, 10:59:15.441
228, -108.65, 0.00, 0.00, -187500.02, 0.00, 0.00, 0.00, 0.00, 0.00, 0.00, 0.00, 10:59:15.444
229, -5.63, 0.00, 0.00, -187500.02, 0.00, 0.00, 0.00, 0.00, 0.00, 0.00, 0.00, 10:59:15.449
230, -1.36, 0.00, 0.00, -187500.02, 0.00, 0.00, 0.00, 0.00, 0.00, 0.00, 0.00, 10:59:15.453
231, -73.89, 0.00, 0.00, -187500.02, 0.00, 0.00, 0.00, 0.00, 0.00, 0.00, 0.00, 10:59:15.457
232, -64.80, 0.00, 0.00, -187500.02, 0.00, 0.00, 0.00, 0.00, 0.00, 0.00, 0.00, 10:59:15.461
233, 25.77, 0.00, 0.00, -187500.02, 0.00, 0.00, 0.00, 0.00, 0.00, 0.00, 0.00, 10:59:15.464
234, 2.95, 0.00, 0.00, -187500.02, 0.00, 0.00, 0.00, 0.00, 0.00, 0.00, 0.00, 10:59:15.467
235, -87.66, 0.00, 0.00, -187500.02, 0.00, 0.00, 0.00, 0.00, 0.00, 0.00, 0.00, 10:59:15.473
236, -108.47, 0.00, 0.00, -187500.02, 0.00, 0.00, 0.00, 0.00, 0.74, -0.13, 0.67, 10:59:15.477
237, -11.49, 0.00, 0.00, -187500.02, 0.00, 0.00, 0.00, 0.00, 0.00, 0.00, 0.00, 10:59:15.481
238, 30.69, 0.00, 0.00, -187500.02, 0.00, 0.00, 0.00, 0.00, 0.00, 0.00, 0.00, 10:59:15.483
239, -55.30, 0.00, 0.00, -187500.02, 0.00, 0.00, 0.00, 0.00, 0.00, 0.00, 0.00, 10:59:15.488
240, -132.79, 0.00, 0.00, -187500.02, 0.00, 0.00, 0.00, 0.00, 0.00, 0.00, 0.00, 10:59:15.491
241, -54.29, 0.00, 0.00, -187500.02, 0.00, 0.00, 0.00, 0.00, 0.00, 0.00, 0.00, 10:59:15.495
242, 22.98, 0.00, 0.00, -187500.02, 0.00, 0.00, 0.00, 0.00, 0.00, 0.00, 0.00, 10:59:15.500
243, -31.58, 0.00, 0.00, -187500.02, 0.00, 0.00, 0.00, 0.00, 0.00, 0.00, 0.00, 10:59:15.505
244, -80.02, 0.00, 0.00, -187500.02, 0.00, 0.00, 0.00, 0.00, 0.00, 0.00, 0.00, 10:59:15.509
245, -21.37, 0.00, 0.00, -187500.02, 0.00, 0.00, 0.00, 0.00, 0.00, 0.00, 0.00, 10:59:15.511
246, 21.90, 0.00, 0.00, -187500.02, 0.00, 0.00, 0.00, 0.00, 0.75, -0.13, 0.67, 10:59:15.516
247, -36.52, 0.00, 0.00, -187500.02, 0.00, 0.00, 0.00, 0.00, 0.00, 0.00, 0.00, 10:59:15.520
248, -99.76, 0.00, 0.00, -187500.02, 0.00, 0.00, 0.00, 0.00, 0.00, 0.00, 0.00, 10:59:15.523
249, -52.17, 0.00, 0.00, -187500.02, 0.00, 0.00, 0.00, 0.00, 0.00, 0.00, 0.00, 10:59:15.528
250, 42.13, 0.00, 0.00, -187500.02, 0.00, 0.00, 0.00, 0.00, 0.00, 0.00, 0.00, 10:59:15.533
251, 23.94, 0.00, 0.00, -187500.02, 0.00, 0.00, 0.00, 0.00, 0.00, 0.00, 0.00, 10:59:15.537
252, -70.21, 0.00, 0.00, -187500.02, 0.00, 0.00, 0.00, 0.00, 0.00, 0.00, 0.00, 10:59:15.540
253, -81.90, 0.00, 0.00, -187500.02, 0.00, 0.00, 0.00, 0.00, 0.00, 0.00, 0.00, 10:59:15.544
254, 12.32, 0.00, 0.00, -187500.02, 0.00, 0.00, 0.00, 0.00, 0.00, 0.00, 0.00, 10:59:15.547
255, 10.46, 0.00, 0.00, -187500.02, 0.00, 0.00, 0.00, 0.00, 0.00, 0.00, 0.00, 10:59:15.552
0, -64.80, 0.00, 0.00, -187500.02, 0.00, 0.00, 0.00, 0.00, 0.75, -0.13, 0.66, 10:59:15.557
1, -60.84, 0.00, 0.00, -187500.02, 0.00, 0.00, 0.00, 0.00, 0.00, 0.00, 0.00, 10:59:15.560
2, 47.74, 0.00, 0.00, -187500.02, 0.00, 0.00, 0.00, 0.00, 0.00, 0.00, 0.00, 10:59:15.564
3, 62.94, 0.00, 0.00, -187500.02, 0.00, 0.00, 0.00, 0.00, 0.00, 0.00, 0.00, 10:59:15.568
4, -55.03, 0.00, 0.00, -187500.02, 0.00, 0.00, 0.00, 0.00, 0.00, 0.00, 0.00, 10:59:15.572
5, -94.75, 0.00, 0.00, -187500.02, 0.00, 0.00, 0.00, 0.00, 0.00, 0.00, 0.00, 10:59:15.576
6, 1.41, 0.00, 0.00, -187500.02, 0.00, 0.00, 0.00, 0.00, 0.00, 0.00, 0.00, 10:59:15.580
7, 57.13, 0.00, 0.00, -187500.02, 0.00, 0.00, 0.00, 0.00, 0.00, 0.00, 0.00, 10:59:15.585
8, -9.39, 0.00, 0.00, -187500.02, 0.00, 0.00, 0.00, 0.00, 0.00, 0.00, 0.00, 10:59:15.588
9, -53.73, 0.00, 0.00, -187500.02, 0.00, 0.00, 0.00, 0.00, 0.00, 0.00, 0.00, 10:59:15.593
10, 3.89, 0.00, 0.00, -187500.02, 0.00, 0.00, 0.00, 0.00, 0.75, -0.15, 0.65, 10:59:15.596
11, 26.84, 0.00, 0.00, -187500.02, 0.00, 0.00, 0.00, 0.00, 0.00, 0.00, 0.00, 10:59:15.599
12, -30.93, 0.00, 0.00, -187500.02, 0.00, 0.00, 0.00, 0.00, 0.00, 0.00, 0.00, 10:59:15.604
13, -80.06, 0.00, 0.00, -187500.02, 0.00, 0.00, 0.00, 0.00, 0.00, 0.00, 0.00, 10:59:15.608
14, -13.50, 0.00, 0.00, -187500.02, 0.00, 0.00, 0.00, 0.00, 0.00, 0.00, 0.00, 10:59:15.613
15, 79.08, 0.00, 0.00, -187500.02, 0.00, 0.00, 0.00, 0.00, 0.00, 0.00, 0.00, 10:59:15.617
16, 34.94, 0.00, 0.00, -187500.02, 0.00, 0.00, 0.00, 0.00, 0.00, 0.00, 0.00, 10:59:15.620
17, -72.55, 0.00, 0.00, -187500.02, 0.00, 0.00, 0.00, 0.00, 0.00, 0.00, 0.00, 10:59:15.623
18, -45.04, 0.00, 0.00, -187500.02, 0.00, 0.00, 0.00, 0.00, 0.00, 0.00, 0.00, 10:59:15.628
19, 60.68, 0.00, 0.00, -187500.02, 0.00, 0.00, 0.00, 0.00, 0.76, -0.14, 0.65, 10:59:15.631
20, 46.49, 0.00, 0.00, -187500.02, 0.00, 0.00, 0.00, 0.00, 0.00, 0.00, 0.00, 10:59:15.636
21, -38.82, 0.00, 0.00, -187500.02, 0.00, 0.00, 0.00, 0.00, 0.00, 0.00, 0.00, 10:59:15.641
22, -29.39, 0.00, 0.00, -187500.02, 0.00, 0.00, 0.00, 0.00, 0.00, 0.00, 0.00, 10:59:15.645
23, 66.59, 0.00, 0.00, -187500.02, 0.00, 0.00, 0.00, 0.00, 0.00, 0.00, 0.00, 10:59:15.647
24, 63.57, 0.00, 0.00, -187500.02, 0.00, 0.00, 0.00, 0.00, 0.00, 0.00, 0.00, 10:59:15.652
25, -46.54, 0.00, 0.00, -187500.02, 0.00, 0.00, 0.00, 0.00, 0.00, 0.00, 0.00, 10:59:15.655
26, -68.15, 0.00, 0.00, -187500.02, 0.00, 0.00, 0.00, 0.00, 0.00, 0.00, 0.00, 10:59:15.660
27, 27.72, 0.00, 0.00, -187500.02, 0.00, 0.00, 0.00, 0.00, 0.00, 0.00, 0.00, 10:59:15.664
28, 56.48, 0.00, 0.00, -187500.02, 0.00, 0.00, 0.00, 0.00, 0.00, 0.00, 0.00, 10:59:15.668
29, -13.23, 0.00, 0.00, -187500.02, 0.00, 0.00, 0.00, 0.00, 0.75, -0.13, 0.65, 10:59:15.673
30, -52.73, 0.00, 0.00, -187500.02, 0.00, 0.00, 0.00, 0.00, 0.00, 0.00, 0.00, 10:59:15.676
