%OpenBCI Raw EEG Data
%
%Sample Rate = 250.0 Hz
%First Column = SampleIndex
%Last Column = Timestamp 
%Other Columns = EEG data in microvolts followed by Accel Data (in G) interleaved with Aux Data
0, 0.00, 0.00, 0.00, 0.00, 0.00, 0.00, 0.00, 0.00, 0.47, -0.42, 0.61, 10:47:08.925
1, 5526.42, -187500.02, -187500.02, -124931.25, -187500.02, -82632.20, -187500.02, -146539.17, 0.00, 0.00, 0.00, 10:47:08.943
2, 5517.28, -187500.02, -187500.02, -124962.81, -187500.02, -82666.07, -187500.02, -146568.61, 0.00, 0.00, 0.00, 10:47:08.946
3, 5457.47, -187500.02, -187500.02, -124993.14, -187500.02, -82696.84, -187500.02, -146598.98, 0.00, 0.00, 0.00, 10:47:08.949
4, 5480.00, -187500.02, -187500.02, -124996.45, -187500.02, -82699.20, -187500.02, -146607.95, 0.00, 0.00, 0.00, 10:47:08.953
5, 5496.54, -187500.02, -187500.02, -124952.22, -187500.02, -82655.59, -187500.02, -146570.08, 0.00, 0.00, 0.00, 10:47:08.957
6, 5473.58, -187500.02, -187500.02, -124942.72, -187500.02, -82648.41, -187500.02, -146563.25, 0.00, 0.00, 0.00, 10:47:08.960
7, 5437.04, -187500.02, -187500.02, -124960.26, -187500.02, -82665.20, -187500.02, -146577.45, 0.00, 0.00, 0.00, 10:47:08.964
8, 5535.36, -187500.02, -187500.02, -124994.80, -187500.02, -82696.83, -187500.02, -146609.47, 0.89, -0.29, 0.38, 10:47:08.969
9, 5632.24, -187500.02, -187500.02, -125025.44, -187500.02, -82723.42, -187500.02, -146642.66, 0.00, 0.00, 0.00, 10:47:08.973
10, 5553.42, -187500.02, -187500.02, -125022.45, -187500.02, -82718.95, -187500.02, -146648.77, 0.00, 0.00, 0.00, 10:47:08.978
11, 5379.42, -187500.02, -187500.02, -124991.24, -187500.02, -82686.45, -187500.02, -146623.58, 0.00, 0.00, 0.00, 10:47:08.981
12, 5403.44, -187500.02, -187500.02, -124985.99, -187500.02, -82680.38, -187500.02, -146614.92, 0.00, 0.00, 0.00, 10:47:08.985
13, 5529.84, -187500.02, -187500.02, -124990.19, -187500.02, -82683.01, -187500.02, -146612.70, 0.00, 0.00, 0.00, 10:47:08.989
14, 5582.44, -187500.02, -187500.02, -125030.60, -187500.02, -82721.88, -187500.02, -146650.81, 0.00, 0.00, 0.00, 10:47:08.993
15, 5439.88, -187500.02, -187500.02, -125045.49, -187500.02, -82736.23, -187500.02, -146672.77, 0.00, 0.00, 0.00, 10:47:08.998
16, 5317.66, -187500.02, -187500.02, -124992.98, -187500.02, -82686.95, -187500.02, -146631.73, 0.00, 0.00, 0.00, 10:47:09.002
17, 5401.99, -187500.02, -187500.02, -124951.27, -187500.02, -82647.96, -187500.02, -146594.17, 0.89, -0.28, 0.38, 10:47:09.005
18, 5520.72, -187500.02, -187500.02, -124973.05, -187500.02, -82668.86, -187500.02, -146611.81, 0.00, 0.00, 0.00, 10:47:09.009
19, 5525.71, -187500.02, -187500.02, -125036.46, -187500.02, -82730.66, -187500.02, -146672.28, 0.00, 0.00, 0.00, 10:47:09.012
20, 5509.35, -187500.02, -187500.02, -125091.55, -187500.02, -82783.73, -187500.02, -146732.41, 0.00, 0.00, 0.00, 10:47:09.017
21, 5497.95, -187500.02, -187500.02, -125065.36, -187500.02, -82755.09, -187500.02, -146716.02, 0.00, 0.00, 0.00, 10:47:09.021
22, 5510.06, -187500.02, -187500.02, -125043.41, -187500.02, -82733.66, -187500.02, -146706.03, 0.00, 0.00, 0.00, 10:47:09.026
23, 5450.56, -187500.02, -187500.02, -125051.14, -187500.02, -82740.27, -187500.02, -146714.39, 0.00, 0.00, 0.00, 10:47:09.029
24, 5398.19, -187500.02, -187500.02, -125062.34, -187500.02, -82752.21, -187500.02, -146720.58, 0.00, 0.00, 0.00, 10:47:09.033
25, 5498.82, -187500.02, -187500.02, -125071.17, -187500.02, -82762.67, -187500.02, -146725.73, 0.00, 0.00, 0.00, 10:47:09.037
26, 5586.84, -187500.02, -187500.02, -125100.34, -187500.02, -82792.96, -187500.02, -146755.48, 0.00, 0.00, 0.00, 10:47:09.040
27, 5458.56, -187500.02, -187500.02, -125095.96, -187500.02, -82786.05, -187500.02, -146761.02, 0.89, -0.26, 0.39, 10:47:09.044
28, 5286.03, -187500.02, -187500.02, -125051.91, -187500.02, -82739.94, -187500.02, -146726.19, 0.00, 0.00, 0.00, 10:47:09.048
29, 5381.27, -187500.02, -187500.02, -125047.66, -187500.02, -82735.11, -187500.02, -146723.58, 0.00, 0.00, 0.00, 10:47:09.053
30, 5519.90, -187500.02, -187500.02, -125057.31, -187500.02, -82742.40, -187500.02, -146729.39, 0.00, 0.00, 0.00, 10:47:09.057
31, 5547.99, -187500.02, -187500.02, -125096.38, -187500.02, -82781.02, -187500.02, -146766.78, 0.00, 0.00, 0.00, 10:47:09.061
32, 5489.28, -187500.02, -187500.02, -125167.66, -187500.02, -82848.93, -187500.02, -146842.39, 0.00, 0.00, 0.00, 10:47:09.065
33, 5420.74, -187500.02, -187500.02, -125146.66, -187500.02, -82824.70, -187500.02, -146829.25, 0.00, 0.00, 0.00, 10:47:09.069
34, 5484.69, -187500.02, -187500.02, -125127.97, -187500.02, -82806.37, -187500.02, -146819.11, 0.00, 0.00, 0.00, 10:47:09.072
35, 5476.92, -187500.02, -187500.02, -125135.03, -187500.02, -82813.79, -187500.02, -146827.48, 0.00, 0.00, 0.00, 10:47:09.076
36, 5383.69, -187500.02, -187500.02, -125139.01, -187500.02, -82816.43, -187500.02, -146827.98, 0.00, 0.00, 0.00, 10:47:09.082
37, 5413.28, -187500.02, -187500.02, -125178.64, -187500.02, -82853.58, -187500.02, -146866.36, 0.89, -0.26, 0.38, 10:47:09.086
38, 5455.30, -187500.02, -187500.02, -125171.17, -187500.02, -82843.99, -187500.02, -146864.92, 0.00, 0.00, 0.00, 10:47:09.090
39, 5398.46, -187500.02, -187500.02, -125136.91, -187500.02, -82807.24, -187500.02, -146837.56, 0.00, 0.00, 0.00, 10:47:09.092
40, 5304.14, -187500.02, -187500.02, -125130.56, -187500.02, -82801.05, -187500.02, -146832.16, 0.00, 0.00, 0.00, 10:47:09.096
41, 5298.53, -187500.02, -187500.02, -125120.59, -187500.02, -82793.36, -187500.02, -146821.83, 0.00, 0.00, 0.00, 10:47:09.100
42, 5445.31, -187500.02, -187500.02, -125141.11, -187500.02, -82814.20, -187500.02, -146846.22, 0.00, 0.00, 0.00, 10:47:09.105
43, 5456.46, -187500.02, -187500.02, -125139.10, -187500.02, -82814.02, -187500.02, -146856.08, 0.00, 0.00, 0.00, 10:47:09.108
44, 5402.06, -187500.02, -187500.02, -125175.15, -187500.02, -82854.09, -187500.02, -146905.36, 0.00, 0.00, 0.00, 10:47:09.113
45, 5354.54, -187500.02, -187500.02, -125202.64, -187500.02, -82881.36, -187500.02, -146934.53, 0.00, 0.00, 0.00, 10:47:09.118
46, 5404.29, -187500.02, -187500.02, -125179.31, -187500.02, -82855.57, -187500.02, -146907.38, 0.00, 0.00, 0.00, 10:47:09.120
47, 5483.89, -187500.02, -187500.02, -125195.27, -187500.02, -82871.28, -187500.02, -146921.86, 0.89, -0.25, 0.39, 10:47:09.124
48, 5384.27, -187500.02, -187500.02, -125208.48, -187500.02, -82884.31, -187500.02, -146941.86, 0.00, 0.00, 0.00, 10:47:09.129
49, 5287.01, -187500.02, -187500.02, -125219.48, -187500.02, -82894.05, -187500.02, -146966.16, 0.00, 0.00, 0.00, 10:47:09.133
50, 5315.38, -187500.02, -187500.02, -125211.38, -187500.02, -82886.05, -187500.02, -146970.36, 0.00, 0.00, 0.00, 10:47:09.136
51, 5404.23, -187500.02, -187500.02, -125218.88, -187500.02, -82891.87, -187500.02, -146979.39, 0.00, 0.00, 0.00, 10:47:09.141
52, 5357.13, -187500.02, -187500.02, -125231.34, -187500.02, -82903.06, -187500.02, -146988.33, 0.00, 0.00, 0.00, 10:47:09.145
53, 5320.32, -187500.02, -187500.02, -125281.73, -187500.02, -82952.06, -187500.02, -147040.59, 0.00, 0.00, 0.00, 10:47:09.149
54, 5384.62, -187500.02, -187500.02, -125341.13, -187500.02, -83006.95, -187500.02, -147107.59, 0.00, 0.00, 0.00, 10:47:09.152
55, 5348.50, -187500.02, -187500.02, -125284.98, -187500.02, -82949.13, -187500.02, -147061.58, 0.00, 0.00, 0.00, 10:47:09.156
56, 5313.57, -187500.02, -187500.02, -125256.11, -187500.02, -82920.43, -187500.02, -147040.39, 0.88, -0.26, 0.38, 10:47:09.160
57, 5290.57, -187500.02, -187500.02, -125286.84, -187500.02, -82952.10, -187500.02, -147074.45, 0.00, 0.00, 0.00, 10:47:09.164
58, 5367.12, -187500.02, -187500.02, -125320.33, -187500.02, -82985.43, -187500.02, -147109.31, 0.00, 0.00, 0.00, 10:47:09.170
59, 5491.64, -187500.02, -187500.02, -125366.80, -187500.02, -83030.38, -187500.02, -147161.73, 0.00, 0.00, 0.00, 10:47:09.172
60, 5410.89, -187500.02, -187500.02, -125371.91, -187500.02, -83033.77, -187500.02, -147178.94, 0.00, 0.00, 0.00, 10:47:09.176
61, 5273.16, -187500.02, -187500.02, -125384.59, -187500.02, -83045.58, -187500.02, -147205.36, 0.00, 0.00, 0.00, 10:47:09.181
62, 5240.30, -187500.02, -187500.02, -125378.69, -187500.02, -83039.55, -187500.02, -147206.73, 0.00, 0.00, 0.00, 10:47:09.184
63, 5405.19, -187500.02, -187500.02, -125422.92, -187500.02, -83082.41, -187500.02, -147248.81, 0.00, 0.00, 0.00, 10:47:09.188
64, 5378.79, -187500.02, -187500.02, -125411.37, -187500.02, -83069.52, -187500.02, -147235.39, 0.00, 0.00, 0.00, 10:47:09.192
65, 5275.70, -187500.02, -187500.02, -125432.45, -187500.02, -83089.91, -187500.02, -147264.22, 0.00, 0.00, 0.00, 10:47:09.197
66, 5235.23, -187500.02, -187500.02, -125454.17, -187500.02, -83112.41, -187500.02, -147302.81, 0.88, -0.25, 0.38, 10:47:09.200
67, 5275.01, -187500.02, -187500.02, -125443.33, -187500.02, -83100.01, -187500.02, -147302.75, 0.00, 0.00, 0.00, 10:47:09.204
68, 5298.06, -187500.02, -187500.02, -125424.17, -187500.02, -83080.00, -187500.02, -147285.56, 0.00, 0.00, 0.00, 10:47:09.209
69, 5255.57, -187500.02, -187500.02, -125460.02, -187500.02, -83114.34, -187500.02, -147322.78, 0.00, 0.00, 0.00, 10:47:09.213
70, 5194.01, -187500.02, -187500.02, -125474.71, -187500.02, -83126.49, -187500.02, -147343.72, 0.00, 0.00, 0.00, 10:47:09.216
71, 5290.90, -187500.02, -187500.02, -125488.57, -187500.02, -83140.02, -187500.02, -147373.11, 0.00, 0.00, 0.00, 10:47:09.220
72, 5350.67, -187500.02, -187500.02, -125504.73, -187500.02, -83157.12, -187500.02, -147402.69, 0.00, 0.00, 0.00, 10:47:09.225
73, 5291.31, -187500.02, -187500.02, -125522.19, -187500.02, -83174.84, -187500.02, -147425.48, 0.00, 0.00, 0.00, 10:47:09.229
74, 5267.37, -187500.02, -187500.02, -125577.04, -187500.02, -83228.55, -187500.02, -147481.56, 0.00, 0.00, 0.00, 10:47:09.231
75, 5309.41, -187500.02, -187500.02, -125595.50, -187500.02, -83244.24, -187500.02, -147500.98, 0.00, 0.00, 0.00, 10:47:09.236
76, 5324.10, -187500.02, -187500.02, -125586.29, -187500.02, -83234.07, -187500.02, -147501.92, 0.89, -0.26, 0.37, 10:47:09.241
77, 5203.96, -187500.02, -187500.02, -125568.79, -187500.02, -83217.04, -187500.02, -147499.80, 0.00, 0.00, 0.00, 10:47:09.245
78, 5129.19, -187500.02, -187500.02, -125586.42, -187500.02, -83234.97, -187500.02, -147527.30, 0.00, 0.00, 0.00, 10:47:09.248
79, 5191.04, -187500.02, -187500.02, -125605.31, -187500.02, -83254.91, -187500.02, -147547.56, 0.00, 0.00, 0.00, 10:47:09.253
80, 5299.02, -187500.02, -187500.02, -125617.78, -187500.02, -83266.55, -187500.02, -147559.48, 0.00, 0.00, 0.00, 10:47:09.257
81, 5289.90, -187500.02, -187500.02, -125661.44, -187500.02, -83309.46, -187500.02, -147608.84, 0.00, 0.00, 0.00, 10:47:09.259
82, 5176.24, -187500.02, -187500.02, -125693.91, -187500.02, -83341.96, -187500.02, -147657.27, 0.00, 0.00, 0.00, 10:47:09.265
83, 5129.46, -187500.02, -187500.02, -125692.95, -187500.02, -83340.29, -187500.02, -147672.47, 0.00, 0.00, 0.00, 10:47:09.268
84, 5173.67, -187500.02, -187500.02, -125637.07, -187500.02, -83284.88, -187500.02, -147625.16, 0.00, 0.00, 0.00, 10:47:09.272
85, 5269.22, -187500.02, -187500.02, -125677.75, -187500.02, -83324.93, -187500.02, -147669.86, 0.00, 0.00, 0.00, 10:47:09.277
86, 5272.58, -187500.02, -187500.02, -125767.05, -187500.02, -83411.63, -187500.02, -147762.92, 0.89, -0.27, 0.38, 10:47:09.281
87, 5244.30, -187500.02, -187500.02, -125817.38, -187500.02, -83459.20, -187500.02, -147822.11, 0.00, 0.00, 0.00, 10:47:09.284
88, 5278.65, -187500.02, -187500.02, -125813.20, -187500.02, -83456.63, -187500.02, -147836.25, 0.00, 0.00, 0.00, 10:47:09.288
89, 5266.92, -187500.02, -187500.02, -125817.43, -187500.02, -83462.23, -187500.02, -147855.48, 0.00, 0.00, 0.00, 10:47:09.293
90, 5199.19, -187500.02, -187500.02, -125851.88, -187500.02, -83494.00, -187500.02, -147894.72, 0.00, 0.00, 0.00, 10:47:09.297
91, 5140.43, -187500.02, -187500.02, -125858.29, -187500.02, -83496.70, -187500.02, -147901.47, 0.00, 0.00, 0.00, 10:47:09.300
92, 5214.91, -187500.02, -187500.02, -125860.92, -187500.02, -83498.09, -187500.02, -147909.22, 0.00, 0.00, 0.00, 10:47:09.304
93, 5225.32, -187500.02, -187500.02, -125868.57, -187500.02, -83506.77, -187500.02, -147931.48, 0.00, 0.00, 0.00, 10:47:09.308
94, 5102.50, -187500.02, -187500.02, -125873.87, -187500.02, -83513.18, -187500.02, -147954.94, 0.00, 0.00, 0.00, 10:47:09.312
95, 5022.53, -187500.02, -187500.02, -125855.59, -187500.02, -83495.92, -187500.02, -147949.45, 0.00, 0.00, 0.00, 10:47:09.315
96, 5189.58, -187500.02, -187500.02, -125893.36, -187500.02, -83532.06, -187500.02, -147989.69, 0.88, -0.27, 0.38, 10:47:09.320
97, 5338.67, -187500.02, -187500.02, -125953.28, -187500.02, -83589.84, -187500.02, -148052.39, 0.00, 0.00, 0.00, 10:47:09.324
98, 5265.94, -187500.02, -187500.02, -126014.98, -187500.02, -83648.18, -187500.02, -148122.91, 0.00, 0.00, 0.00, 10:47:09.329
99, 5119.53, -187500.02, -187500.02, -126018.55, -187500.02, -83650.10, -187500.02, -148143.58, 0.00, 0.00, 0.00, 10:47:09.333
100, 5138.98, -187500.02, -187500.02, -126026.69, -187500.02, -83658.22, -187500.02, -148169.75, 0.00, 0.00, 0.00, 10:47:09.336
101, 5187.82, -187500.02, -187500.02, -126006.37, -187500.02, -83639.78, -187500.02, -148162.69, 0.00, 0.00, 0.00, 10:47:09.340
102, 5179.77, -187500.02, -187500.02, -126037.44, -187500.02, -83672.45, -187500.02, -148202.92, 0.00, 0.00, 0.00, 10:47:09.343
103, 5100.13, -187500.02, -187500.02, -126063.92, -187500.02, -83698.98, -187500.02, -148233.64, 0.00, 0.00, 0.00, 10:47:09.348
104, 5182.94, -187500.02, -187500.02, -126126.51, -187500.02, -83760.30, -187500.02, -148302.02, 0.00, 0.00, 0.00, 10:47:09.353
105, 5211.31, -187500.02, -187500.02, -126127.47, -187500.02, -83760.95, -187500.02, -148317.70, 0.88, -0.27, 0.38, 10:47:09.357
106, 5129.41, -187500.02, -187500.02, -126118.30, -187500.02, -83752.63, -187500.02, -148328.34, 0.00, 0.00, 0.00, 10:47:09.361
107, 5032.14, -187500.02, -187500.02, -126116.27, -187500.02, -83750.91, -187500.02, -148340.39, 0.00, 0.00, 0.00, 10:47:09.363
108, 5130.02, -187500.02, -187500.02, -126164.69, -187500.02, -83799.21, -187500.02, -148394.20, 0.00, 0.00, 0.00, 10:47:09.367
109, 5238.53, -187500.02, -187500.02, -126170.92, -187500.02, -83804.42, -187500.02, -148401.55, 0.00, 0.00, 0.00, 10:47:09.372
110, 5282.21, -187500.02, -187500.02, -126218.51, -187500.02, -83851.59, -187500.02, -148458.42, 0.00, 0.00, 0.00, 10:47:09.376
111, 5136.94, -187500.02, -187500.02, -126245.64, -187500.02, -83879.41, -187500.02, -148504.19, 0.00, 0.00, 0.00, 10:47:09.380
112, 5108.65, -187500.02, -187500.02, -126276.47, -187500.02, -83911.11, -187500.02, -148553.83, 0.00, 0.00, 0.00, 10:47:09.385
113, 5157.02, -187500.02, -187500.02, -126274.90, -187500.02, -83907.77, -187500.02, -148565.80, 0.00, 0.00, 0.00, 10:47:09.389
114, 5138.89, -187500.02, -187500.02, -126243.48, -187500.02, -83877.63, -187500.02, -148542.63, 0.00, 0.00, 0.00, 10:47:09.391
115, 5092.49, -187500.02, -187500.02, -126276.94, -187500.02, -83910.81, -187500.02, -148581.30, 0.87, -0.27, 0.37, 10:47:09.395
116, 5085.38, -187500.02, -187500.02, -126327.77, -187500.02, -83960.34, -187500.02, -148638.84, 0.00, 0.00, 0.00, 10:47:09.400
117, 5161.17, -187500.02, -187500.02, -126365.56, -187500.02, -83995.88, -187500.02, -148690.86, 0.00, 0.00, 0.00, 10:47:09.404
118, 5147.56, -187500.02, -187500.02, -126355.39, -187500.02, -83984.80, -187500.02, -148699.13, 0.00, 0.00, 0.00, 10:47:09.409
119, 5013.23, -187500.02, -187500.02, -126339.01, -187500.02, -83970.47, -187500.02, -148697.09, 0.00, 0.00, 0.00, 10:47:09.412
120, 4983.28, -187500.02, -187500.02, -126346.56, -187500.02, -83981.63, -187500.02, -148711.27, 0.00, 0.00, 0.00, 10:47:09.416
121, 5168.97, -187500.02, -187500.02, -126408.84, -187500.02, -84044.27, -187500.02, -148780.45, 0.00, 0.00, 0.00, 10:47:09.420
122, 5276.00, -187500.02, -187500.02, -126469.34, -187500.02, -84102.44, -187500.02, -148855.55, 0.00, 0.00, 0.00, 10:47:09.424
123, 5160.41, -187500.02, -187500.02, -126485.99, -187500.02, -84118.95, -187500.02, -148893.95, 0.00, 0.00, 0.00, 10:47:09.427
124, 5003.53, -187500.02, -187500.02, -126475.71, -187500.02, -84109.97, -187500.02, -148904.66, 0.00, 0.00, 0.00, 10:47:09.432
125, 5064.50, -187500.02, -187500.02, -126485.21, -187500.02, -84120.16, -187500.02, -148926.66, 0.88, -0.26, 0.37, 10:47:09.437
126, 5179.75, -187500.02, -187500.02, -126509.46, -187500.02, -84146.13, -187500.02, -148956.25, 0.00, 0.00, 0.00, 10:47:09.441
127, 5197.03, -187500.02, -187500.02, -126571.20, -187500.02, -84209.10, -187500.02, -149024.84, 0.00, 0.00, 0.00, 10:47:09.444
128, 5074.83, -187500.02, -187500.02, -126615.85, -187500.02, -84250.34, -187500.02, -149079.89, 0.00, 0.00, 0.00, 10:47:09.448
129, 5035.76, -187500.02, -187500.02, -126603.23, -187500.02, -84236.81, -187500.02, -149085.33, 0.00, 0.00, 0.00, 10:47:09.452
130, 5088.53, -187500.02, -187500.02, -126598.20, -187500.02, -84232.88, -187500.02, -149100.23, 0.00, 0.00, 0.00, 10:47:09.455
131, 5023.08, -187500.02, -187500.02, -126566.66, -187500.02, -84204.98, -187500.02, -149080.16, 0.00, 0.00, 0.00, 10:47:09.460
132, 4933.16, -187500.02, -187500.02, -126561.98, -187500.02, -84205.10, -187500.02, -149082.84, 0.00, 0.00, 0.00, 10:47:09.465
133, 4968.84, -187500.02, -187500.02, -126566.37, -187500.02, -84211.54, -187500.02, -149095.56, 0.00, 0.00, 0.00, 10:47:09.469
134, 5135.22, -187500.02, -187500.02, -126614.80, -187500.02, -84259.28, -187500.02, -149155.47, 0.00, 0.00, 0.00, 10:47:09.473
135, 5190.48, -187500.02, -187500.02, -126686.66, -187500.02, -84329.62, -187500.02, -149247.58, 0.88, -0.25, 0.38, 10:47:09.476
136, 5048.32, -187500.02, -187500.02, -126717.89, -187500.02, -84359.30, -187500.02, -149299.56, 0.00, 0.00, 0.00, 10:47:09.480
137, 4970.54, -187500.02, -187500.02, -126712.13, -187500.02, -84355.01, -187500.02, -149309.67, 0.00, 0.00, 0.00, 10:47:09.484
138, 5073.87, -187500.02, -187500.02, -126712.05, -187500.02, -84357.78, -187500.02, -149316.95, 0.00, 0.00, 0.00, 10:47:09.488
139, 5164.19, -187500.02, -187500.02, -126767.09, -187500.02, -84412.50, -187500.02, -149375.94, 0.00, 0.00, 0.00, 10:47:09.491
140, 5069.35, -187500.02, -187500.02, -126808.82, -187500.02, -84452.95, -187500.02, -149427.22, 0.00, 0.00, 0.00, 10:47:09.496
141, 4940.36, -187500.02, -187500.02, -126799.56, -187500.02, -84444.71, -187500.02, -149436.58, 0.00, 0.00, 0.00, 10:47:09.500
142, 4966.69, -187500.02, -187500.02, -126776.07, -187500.02, -84423.92, -187500.02, -149432.34, 0.00, 0.00, 0.00, 10:47:09.504
143, 5014.90, -187500.02, -187500.02, -126771.40, -187500.02, -84422.29, -187500.02, -149443.02, 0.00, 0.00, 0.00, 10:47:09.508
144, 4970.96, -187500.02, -187500.02, -126799.25, -187500.02, -84451.98, -187500.02, -149480.48, 0.00, 0.00, 0.00, 10:47:09.512
145, 4919.57, -187500.02, -187500.02, -126818.36, -187500.02, -84473.19, -187500.02, -149509.50, 0.87, -0.26, 0.38, 10:47:09.515
146, 5017.97, -187500.02, -187500.02, -126845.68, -187500.02, -84500.52, -187500.02, -149551.27, 0.00, 0.00, 0.00, 10:47:09.520
147, 5110.41, -187500.02, -187500.02, -126880.09, -187500.02, -84533.98, -187500.02, -149604.95, 0.00, 0.00, 0.00, 10:47:09.525
148, 5089.18, -187500.02, -187500.02, -126942.91, -187500.02, -84596.70, -187500.02, -149687.69, 0.00, 0.00, 0.00, 10:47:09.528
149, 4991.81, -187500.02, -187500.02, -127000.57, -187500.02, -84653.25, -187500.02, -149765.25, 0.00, 0.00, 0.00, 10:47:09.531
150, 4937.30, -187500.02, -187500.02, -126955.96, -187500.02, -84608.39, -187500.02, -149736.55, 0.00, 0.00, 0.00, 10:47:09.536
151, 5057.15, -187500.02, -187500.02, -126963.65, -187500.02, -84618.47, -187500.02, -149752.86, 0.00, 0.00, 0.00, 10:47:09.540
152, 5089.81, -187500.02, -187500.02, -127027.17, -187500.02, -84681.95, -187500.02, -149822.20, 0.00, 0.00, 0.00, 10:47:09.544
153, 5011.86, -187500.02, -187500.02, -127099.41, -187500.02, -84751.98, -187500.02, -149908.25, 0.00, 0.00, 0.00, 10:47:09.547
154, 4939.31, -187500.02, -187500.02, -127078.02, -187500.02, -84731.57, -187500.02, -149907.92, 0.88, -0.26, 0.38, 10:47:09.552
155, 5032.05, -187500.02, -187500.02, -127077.80, -187500.02, -84732.20, -187500.02, -149923.89, 0.00, 0.00, 0.00, 10:47:09.556
156, 5057.35, -187500.02, -187500.02, -127120.40, -187500.02, -84777.57, -187500.02, -149975.78, 0.00, 0.00, 0.00, 10:47:09.560
157, 4971.77, -187500.02, -187500.02, -127158.16, -187500.02, -84816.38, -187500.02, -150024.55, 0.00, 0.00, 0.00, 10:47:09.564
158, 4959.52, -187500.02, -187500.02, -127201.11, -187500.02, -84857.34, -187500.02, -150085.08, 0.00, 0.00, 0.00, 10:47:09.568
159, 4964.01, -187500.02, -187500.02, -127162.89, -187500.02, -84820.04, -187500.02, -150069.97, 0.00, 0.00, 0.00, 10:47:09.585
160, 4994.14, -187500.02, -187500.02, -127164.44, -187500.02, -84823.34, -187500.02, -150092.47, 0.00, 0.00, 0.00, 10:47:09.585
161, 4973.55, -187500.02, -187500.02, -127211.20, -187500.02, -84871.38, -187500.02, -150151.17, 0.00, 0.00, 0.00, 10:47:09.585
162, 4982.23, -187500.02, -187500.02, -127249.33, -187500.02, -84910.83, -187500.02, -150201.64, 0.00, 0.00, 0.00, 10:47:09.585
163, 5102.48, -187500.02, -187500.02, -127304.63, -187500.02, -84966.51, -187500.02, -150275.78, 0.00, 0.00, 0.00, 10:47:09.586
164, 5083.61, -187500.02, -187500.02, -127318.08, -187500.02, -84981.64, -187500.02, -150313.47, 0.88, -0.26, 0.36, 10:47:09.592
165, 4947.92, -187500.02, -187500.02, -127329.37, -187500.02, -84995.19, -187500.02, -150348.56, 0.00, 0.00, 0.00, 10:47:09.596
166, 4862.93, -187500.02, -187500.02, -127331.42, -187500.02, -84997.91, -187500.02, -150364.73, 0.00, 0.00, 0.00, 10:47:09.600
167, 4931.17, -187500.02, -187500.02, -127315.80, -187500.02, -84984.80, -187500.02, -150358.77, 0.00, 0.00, 0.00, 10:47:09.604
168, 5048.43, -187500.02, -187500.02, -127355.01, -187500.02, -85026.30, -187500.02, -150410.05, 0.00, 0.00, 0.00, 10:47:09.607
169, 4973.84, -187500.02, -187500.02, -127401.72, -187500.02, -85073.95, -187500.02, -150476.03, 0.00, 0.00, 0.00, 10:47:09.611
170, 4831.42, -187500.02, -187500.02, -127401.48, -187500.02, -85076.50, -187500.02, -150501.59, 0.00, 0.00, 0.00, 10:47:09.616
171, 4852.03, -187500.02, -187500.02, -127392.00, -187500.02, -85070.09, -187500.02, -150515.97, 0.00, 0.00, 0.00, 10:47:09.620
172, 4906.01, -187500.02, -187500.02, -127371.10, -187500.02, -85052.84, -187500.02, -150512.44, 0.00, 0.00, 0.00, 10:47:09.624
173, 4922.12, -187500.02, -187500.02, -127403.82, -187500.02, -85089.34, -187500.02, -150557.67, 0.00, 0.00, 0.00, 10:47:09.628
174, 4945.66, -187500.02, -187500.02, -127501.97, -187500.02, -85186.49, -187500.02, -150667.11, 0.88, -0.25, 0.37, 10:47:09.632
175, 4968.70, -187500.02, -187500.02, -127538.06, -187500.02, -85220.74, -187500.02, -150721.52, 0.00, 0.00, 0.00, 10:47:09.635
176, 5019.91, -187500.02, -187500.02, -127557.35, -187500.02, -85239.34, -187500.02, -150762.67, 0.00, 0.00, 0.00, 10:47:09.639
177, 4973.11, -187500.02, -187500.02, -127593.05, -187500.02, -85275.88, -187500.02, -150821.88, 0.00, 0.00, 0.00, 10:47:09.642
178, 4805.83, -187500.02, -187500.02, -127572.09, -187500.02, -85257.44, -187500.02, -150819.98, 0.00, 0.00, 0.00, 10:47:09.649
179, 4883.81, -187500.02, -187500.02, -127606.53, -187500.02, -85295.55, -187500.02, -150868.66, 0.00, 0.00, 0.00, 10:47:09.652
180, 5015.93, -187500.02, -187500.02, -127648.46, -187500.02, -85338.66, -187500.02, -150920.72, 0.00, 0.00, 0.00, 10:47:09.656
181, 5006.72, -187500.02, -187500.02, -127696.00, -187500.02, -85386.08, -187500.02, -150983.75, 0.00, 0.00, 0.00, 10:47:09.659
182, 4869.55, -187500.02, -187500.02, -127724.32, -187500.02, -85416.72, -187500.02, -151037.13, 0.00, 0.00, 0.00, 10:47:09.663
183, 4824.06, -187500.02, -187500.02, -127738.88, -187500.02, -85433.48, -187500.02, -151075.03, 0.00, 0.00, 0.00, 10:47:09.667
184, 4916.33, -187500.02, -187500.02, -127744.04, -187500.02, -85441.13, -187500.02, -151098.14, 0.88, -0.25, 0.38, 10:47:09.671
185, 4939.27, -187500.02, -187500.02, -127756.24, -187500.02, -85454.31, -187500.02, -151121.64, 0.00, 0.00, 0.00, 10:47:09.676
186, 4878.22, -187500.02, -187500.02, -127788.88, -187500.02, -85488.06, -187500.02, -151170.63, 0.00, 0.00, 0.00, 10:47:09.679
187, 4858.06, -187500.02, -187500.02, -127831.05, -187500.02, -85530.49, -187500.02, -151237.28, 0.00, 0.00, 0.00, 10:47:09.684
188, 4973.22, -187500.02, -187500.02, -127875.94, -187500.02, -85576.24, -187500.02, -151309.44, 0.00, 0.00, 0.00, 10:47:09.687
189, 4987.28, -187500.02, -187500.02, -127902.06, -187500.02, -85604.59, -187500.02, -151361.06, 0.00, 0.00, 0.00, 10:47:09.691
190, 4919.46, -187500.02, -187500.02, -127941.58, -187500.02, -85647.39, -187500.02, -151417.13, 0.00, 0.00, 0.00, 10:47:09.695
191, 4896.28, -187500.02, -187500.02, -127996.92, -187500.02, -85704.43, -187500.02, -151483.36, 0.00, 0.00, 0.00, 10:47:09.699
192, 4949.15, -187500.02, -187500.02, -128019.66, -187500.02, -85729.24, -187500.02, -151520.08, 0.00, 0.00, 0.00, 10:47:09.704
193, 4937.34, -187500.02, -187500.02, -128003.30, -187500.02, -85717.62, -187500.02, -151527.70, 0.88, -0.27, 0.39, 10:47:09.708
194, 4870.31, -187500.02, -187500.02, -128044.51, -187500.02, -85762.61, -187500.02, -151596.48, 0.00, 0.00, 0.00, 10:47:09.712
195, 4735.33, -187500.02, -187500.02, -128037.45, -187500.02, -85757.74, -187500.02, -151612.09, 0.00, 0.00, 0.00, 10:47:09.716
196, 4832.09, -187500.02, -187500.02, -128056.56, -187500.02, -85781.68, -187500.02, -151645.81, 0.00, 0.00, 0.00, 10:47:09.719
197, 4939.89, -187500.02, -187500.02, -128095.98, -187500.02, -85824.57, -187500.02, -151697.42, 0.00, 0.00, 0.00, 10:47:09.723
198, 4905.38, -187500.02, -187500.02, -128150.08, -187500.02, -85880.59, -187500.02, -151771.48, 0.00, 0.00, 0.00, 10:47:09.727
199, 4752.52, -187500.02, -187500.02, -128154.05, -187500.02, -85885.66, -187500.02, -151801.00, 0.00, 0.00, 0.00, 10:47:09.732
200, 4779.92, -187500.02, -187500.02, -128160.31, -187500.02, -85896.45, -187500.02, -151835.64, 0.00, 0.00, 0.00, 10:47:09.737
201, 4924.74, -187500.02, -187500.02, -128190.87, -187500.02, -85929.85, -187500.02, -151887.66, 0.00, 0.00, 0.00, 10:47:09.740
202, 4955.36, -187500.02, -187500.02, -128252.90, -187500.02, -85990.66, -187500.02, -151961.73, 0.00, 0.00, 0.00, 10:47:09.743
203, 4886.40, -187500.02, -187500.02, -128328.11, -187500.02, -86064.07, -187500.02, -152051.84, 0.86, -0.25, 0.38, 10:47:09.747
204, 4805.51, -187500.02, -187500.02, -128328.67, -187500.02, -86064.02, -187500.02, -152075.88, 0.00, 0.00, 0.00, 10:47:09.752
205, 4888.68, -187500.02, -187500.02, -128343.78, -187500.02, -86084.14, -187500.02, -152120.09, 0.00, 0.00, 0.00, 10:47:09.755
206, 4869.51, -187500.02, -187500.02, -128358.94, -187500.02, -86103.30, -187500.02, -152155.73, 0.00, 0.00, 0.00, 10:47:09.759
207, 4802.14, -187500.02, -187500.02, -128404.30, -187500.02, -86151.17, -187500.02, -152213.61, 0.00, 0.00, 0.00, 10:47:09.764
208, 4757.59, -187500.02, -187500.02, -128413.54, -187500.02, -86163.27, -187500.02, -152236.45, 0.00, 0.00, 0.00, 10:47:09.767
209, 4854.60, -187500.02, -187500.02, -128438.08, -187500.02, -86190.56, -187500.02, -152284.13, 0.00, 0.00, 0.00, 10:47:09.771
210, 4849.73, -187500.02, -187500.02, -128462.98, -187500.02, -86217.09, -187500.02, -152337.48, 0.00, 0.00, 0.00, 10:47:09.776
211, 4720.15, -187500.02, -187500.02, -128478.98, -187500.02, -86235.71, -187500.02, -152380.08, 0.00, 0.00, 0.00, 10:47:09.779
212, 4717.36, -187500.02, -187500.02, -128520.29, -187500.02, -86279.23, -187500.02, -152438.83, 0.00, 0.00, 0.00, 10:47:09.783
213, 4800.13, -187500.02, -187500.02, -128529.09, -187500.02, -86289.98, -187500.02, -152460.97, 0.88, -0.27, 0.39, 10:47:09.788
214, 4879.54, -187500.02, -187500.02, -128546.76, -187500.02, -86308.82, -187500.02, -152495.20, 0.00, 0.00, 0.00, 10:47:09.792
215, 4818.77, -187500.02, -187500.02, -128597.54, -187500.02, -86361.91, -187500.02, -152570.19, 0.00, 0.00, 0.00, 10:47:09.796
216, 4778.78, -187500.02, -187500.02, -128649.33, -187500.02, -86414.73, -187500.02, -152650.20, 0.00, 0.00, 0.00, 10:47:09.799
217, 4872.10, -187500.02, -187500.02, -128720.88, -187500.02, -86482.56, -187500.02, -152744.63, 0.00, 0.00, 0.00, 10:47:09.803
218, 4885.38, -187500.02, -187500.02, -128717.30, -187500.02, -86478.09, -187500.02, -152761.47, 0.00, 0.00, 0.00, 10:47:09.807
219, 4839.85, -187500.02, -187500.02, -128754.23, -187500.02, -86517.59, -187500.02, -152814.09, 0.00, 0.00, 0.00, 10:47:09.812
220, 4773.01, -187500.02, -187500.02, -128789.83, -187500.02, -86556.48, -187500.02, -152865.63, 0.00, 0.00, 0.00, 10:47:09.815
221, 4816.09, -187500.02, -187500.02, -128827.07, -187500.02, -86596.49, -187500.02, -152924.06, 0.00, 0.00, 0.00, 10:47:09.820
222, 4871.29, -187500.02, -187500.02, -128847.37, -187500.02, -86618.86, -187500.02, -152970.73, 0.00, 0.00, 0.00, 10:47:09.823
223, 4799.79, -187500.02, -187500.02, -128876.00, -187500.02, -86649.15, -187500.02, -153027.69, 0.87, -0.29, 0.38, 10:47:09.828
224, 4656.36, -187500.02, -187500.02, -128874.50, -187500.02, -86649.57, -187500.02, -153049.78, 0.00, 0.00, 0.00, 10:47:09.831
225, 4712.84, -187500.02, -187500.02, -128888.42, -187500.02, -86667.74, -187500.02, -153079.88, 0.00, 0.00, 0.00, 10:47:09.835
226, 4831.53, -187500.02, -187500.02, -128910.82, -187500.02, -86692.89, -187500.02, -153114.56, 0.00, 0.00, 0.00, 10:47:09.839
227, 4872.37, -187500.02, -187500.02, -128995.78, -187500.02, -86778.43, -187500.02, -153217.61, 0.00, 0.00, 0.00, 10:47:09.844
228, 4692.44, -187500.02, -187500.02, -129011.80, -187500.02, -86795.73, -187500.02, -153259.47, 0.00, 0.00, 0.00, 10:47:09.849
229, 4603.16, -187500.02, -187500.02, -128971.95, -187500.02, -86762.80, -187500.02, -153248.86, 0.00, 0.00, 0.00, 10:47:09.851
230, 4743.51, -187500.02, -187500.02, -128964.78, -187500.02, -86762.90, -187500.02, -153263.41, 0.00, 0.00, 0.00, 10:47:09.855
231, 4869.15, -187500.02, -187500.02, -129048.59, -187500.02, -86849.09, -187500.02, -153360.91, 0.00, 0.00, 0.00, 10:47:09.859
232, 4834.12, -187500.02, -187500.02, -129129.29, -187500.02, -86930.27, -187500.02, -153457.55, 0.00, 0.00, 0.00, 10:47:09.863
233, 4768.12, -187500.02, -187500.02, -129172.63, -187500.02, -86972.78, -187500.02, -153522.92, 0.88, -0.25, 0.37, 10:47:09.867
234, 4839.62, -187500.02, -187500.02, -129193.68, -187500.02, -86994.66, -187500.02, -153569.84, 0.00, 0.00, 0.00, 10:47:09.871
235, 4829.12, -187500.02, -187500.02, -129213.77, -187500.02, -87015.47, -187500.02, -153614.14, 0.00, 0.00, 0.00, 10:47:09.876
236, 4746.19, -187500.02, -187500.02, -129239.73, -187500.02, -87042.59, -187500.02, -153655.78, 0.00, 0.00, 0.00, 10:47:09.879
237, 4728.91, -187500.02, -187500.02, -129288.79, -187500.02, -87091.52, -187500.02, -153718.23, 0.00, 0.00, 0.00, 10:47:09.882
238, 4754.42, -187500.02, -187500.02, -129286.55, -187500.02, -87092.61, -187500.02, -153739.19, 0.00, 0.00, 0.00, 10:47:09.887
239, 4796.04, -187500.02, -187500.02, -129301.46, -187500.02, -87112.70, -187500.02, -153783.64, 0.00, 0.00, 0.00, 10:47:09.891
240, 4712.57, -187500.02, -187500.02, -129341.59, -187500.02, -87154.23, -187500.02, -153847.67, 0.00, 0.00, 0.00, 10:47:09.896
241, 4667.38, -187500.02, -187500.02, -129370.40, -187500.02, -87184.85, -187500.02, -153891.17, 0.00, 0.00, 0.00, 10:47:09.899
242, 4788.21, -187500.02, -187500.02, -129416.64, -187500.02, -87233.29, -187500.02, -153947.92, 0.89, -0.26, 0.37, 10:47:09.904
243, 4859.47, -187500.02, -187500.02, -129447.15, -187500.02, -87266.02, -187500.02, -153992.20, 0.00, 0.00, 0.00, 10:47:09.908
244, 4753.39, -187500.02, -187500.02, -129456.41, -187500.02, -87278.93, -187500.02, -154026.22, 0.00, 0.00, 0.00, 10:47:09.911
245, 4695.68, -187500.02, -187500.02, -129494.88, -187500.02, -87321.60, -187500.02, -154095.69, 0.00, 0.00, 0.00, 10:47:09.915
246, 4740.00, -187500.02, -187500.02, -129514.32, -187500.02, -87343.33, -187500.02, -154142.86, 0.00, 0.00, 0.00, 10:47:09.920
247, 4872.88, -187500.02, -187500.02, -129554.39, -187500.02, -87384.21, -187500.02, -154200.03, 0.00, 0.00, 0.00, 10:47:09.923
248, 4866.56, -187500.02, -187500.02, -129607.73, -187500.02, -87440.29, -187500.02, -154267.41, 0.00, 0.00, 0.00, 10:47:09.927
249, 4770.71, -187500.02, -187500.02, -129667.18, -187500.02, -87502.43, -187500.02, -154349.23, 0.00, 0.00, 0.00, 10:47:09.932
250, 4716.55, -187500.02, -187500.02, -129666.48, -187500.02, -87503.14, -187500.02, -154374.48, 0.00, 0.00, 0.00, 10:47:09.934
251, 4800.57, -187500.02, -187500.02, -129671.31, -187500.02, -87511.37, -187500.02, -154405.83, 0.00, 0.00, 0.00, 10:47:09.938
252, 4770.06, -187500.02, -187500.02, -129689.20, -187500.02, -87532.18, -187500.02, -154441.08, 0.88, -0.25, 0.38, 10:47:09.944
253, 4657.41, -187500.02, -187500.02, -129688.62, -187500.02, -87536.52, -187500.02, -154454.14, 0.00, 0.00, 0.00, 10:47:09.947
254, 4731.71, -187500.02, -187500.02, -129761.73, -187500.02, -87612.91, -187500.02, -154543.48, 0.00, 0.00, 0.00, 10:47:09.951
255, 4822.30, -187500.02, -187500.02, -129807.88, -187500.02, -87659.94, -187500.02, -154612.23, 0.00, 0.00, 0.00, 10:47:09.955
0, 4743.73, -187500.02, -187500.02, -129791.50, -187500.02, -87646.30, -187500.02, -154622.34, 0.00, 0.00, 0.00, 10:47:09.960
1, 4647.24, -187500.02, -187500.02, -129818.57, -187500.02, -87675.70, -187500.02, -154675.81, 0.00, 0.00, 0.00, 10:47:09.962
2, 4624.04, -187500.02, -187500.02, -129841.15, -187500.02, -87700.80, -187500.02, -154716.53, 0.00, 0.00, 0.00, 10:47:09.966
3, 4757.81, -187500.02, -187500.02, -129853.55, -187500.02, -87717.34, -187500.02, -154742.38, 0.00, 0.00, 0.00, 10:47:09.971
4, 4854.15, -187500.02, -187500.02, -129897.20, -187500.02, -87764.61, -187500.02, -154802.09, 0.00, 0.00, 0.00, 10:47:09.976
5, 4786.94, -187500.02, -187500.02, -129959.07, -187500.02, -87828.52, -187500.02, -154886.63, 0.00, 0.00, 0.00, 10:47:09.979
6, 4704.73, -187500.02, -187500.02, -129995.66, -187500.02, -87866.20, -187500.02, -154948.25, 0.88, -0.25, 0.38, 10:47:09.985
7, 4759.54, -187500.02, -187500.02, -130016.23, -187500.02, -87888.04, -187500.02, -154993.94, 0.00, 0.00, 0.00, 10:47:09.989
8, 4789.24, -187500.02, -187500.02, -130011.17, -187500.02, -87888.17, -187500.02, -155010.27, 0.00, 0.00, 0.00, 10:47:09.991
9, 4791.70, -187500.02, -187500.02, -130079.39, -187500.02, -87959.72, -187500.02, -155093.00, 0.00, 0.00, 0.00, 10:47:09.995
10, 4700.19, -187500.02, -187500.02, -130125.57, -187500.02, -88004.20, -187500.02, -155155.02, 0.00, 0.00, 0.00, 10:47:10.000
11, 4661.46, -187500.02, -187500.02, -130087.23, -187500.02, -87969.51, -187500.02, -155142.36, 0.00, 0.00, 0.00, 10:47:10.003
12, 4752.14, -187500.02, -187500.02, -130106.62, -187500.02, -87992.53, -187500.02, -155187.89, 0.00, 0.00, 0.00, 10:47:10.007
13, 4672.07, -187500.02, -187500.02, -130121.81, -187500.02, -88012.92, -187500.02, -155227.03, 0.00, 0.00, 0.00, 10:47:10.012
14, 4621.29, -187500.02, -187500.02, -130155.08, -187500.02, -88051.50, -187500.02, -155276.77, 0.00, 0.00, 0.00, 10:47:10.014
15, 4715.30, -187500.02, -187500.02, -130211.34, -187500.02, -88111.94, -187500.02, -155347.45, 0.00, 0.00, 0.00, 10:47:10.018
16, 4792.46, -187500.02, -187500.02, -130242.38, -187500.02, -88145.69, -187500.02, -155401.81, 0.88, -0.25, 0.39, 10:47:10.023
17, 4699.43, -187500.02, -187500.02, -130232.21, -187500.02, -88142.24, -187500.02, -155421.44, 0.00, 0.00, 0.00, 10:47:10.026
18, 4613.91, -187500.02, -187500.02, -130256.66, -187500.02, -88171.05, -187500.02, -155473.13, 0.00, 0.00, 0.00, 10:47:10.031
19, 4618.83, -187500.02, -187500.02, -130243.45, -187500.02, -88162.30, -187500.02, -155479.20, 0.00, 0.00, 0.00, 10:47:10.035
20, 4864.01, -187500.02, -187500.02, -130325.33, -187500.02, -88247.84, -187500.02, -155575.72, 0.00, 0.00, 0.00, 10:47:10.039
21, 4872.48, -187500.02, -187500.02, -130411.31, -187500.02, -88332.10, -187500.02, -155675.00, 0.00, 0.00, 0.00, 10:47:10.043
22, 4697.17, -187500.02, -187500.02, -130422.20, -187500.02, -88343.84, -187500.02, -155709.33, 0.00, 0.00, 0.00, 10:47:10.046
23, 4620.37, -187500.02, -187500.02, -130416.91, -187500.02, -88340.51, -187500.02, -155728.83, 0.00, 0.00, 0.00, 10:47:10.050
24, 4718.65, -187500.02, -187500.02, -130414.40, -187500.02, -88341.96, -187500.02, -155747.48, 0.00, 0.00, 0.00, 10:47:10.055
25, 4757.86, -187500.02, -187500.02, -130438.48, -187500.02, -88370.16, -187500.02, -155786.05, 0.00, 0.00, 0.00, 10:47:10.060
26, 4656.07, -187500.02, -187500.02, -130454.99, -187500.02, -88390.73, -187500.02, -155817.72, 0.88, -0.27, 0.38, 10:47:10.063
27, 4646.08, -187500.02, -187500.02, -130508.16, -187500.02, -88445.76, -187500.02, -155892.38, 0.00, 0.00, 0.00, 10:47:10.066
28, 4706.88, -187500.02, -187500.02, -130531.23, -187500.02, -88470.44, -187500.02, -155941.41, 0.00, 0.00, 0.00, 10:47:10.071
29, 4706.52, -187500.02, -187500.02, -130533.40, -187500.02, -88477.19, -187500.02, -155970.84, 0.00, 0.00, 0.00, 10:47:10.075
30, 4647.35, -187500.02, -187500.02, -130570.68, -187500.02, -88518.34, -187500.02, -156027.36, 0.00, 0.00, 0.00, 10:47:10.078
31, 4578.35, -187500.02, -187500.02, -130581.08, -187500.02, -88533.16, -187500.02, -156051.30, 0.00, 0.00, 0.00, 10:47:10.082
32, 4682.98, -187500.02, -187500.02, -130592.79, -187500.02, -88549.14, -187500.02, -156078.56, 0.00, 0.00, 0.00, 10:47:10.087
33, 4801.22, -187500.02, -187500.02, -130649.90, -187500.02, -88609.04, -187500.02, -156160.17, 0.00, 0.00, 0.00, 10:47:10.092
34, 4723.08, -187500.02, -187500.02, -130688.16, -187500.02, -88648.80, -187500.02, -156224.52, 0.00, 0.00, 0.00, 10:47:10.094
35, 4635.19, -187500.02, -187500.02, -130715.88, -187500.02, -88679.56, -187500.02, -156279.91, 0.89, -0.27, 0.37, 10:47:10.098
36, 4684.79, -187500.02, -187500.02, -130746.68, -187500.02, -88711.86, -187500.02, -156334.44, 0.00, 0.00, 0.00, 10:47:10.103
37, 4755.47, -187500.02, -187500.02, -130753.54, -187500.02, -88721.73, -187500.02, -156356.69, 0.00, 0.00, 0.00, 10:47:10.107
38, 4738.26, -187500.02, -187500.02, -130794.45, -187500.02, -88765.55, -187500.02, -156409.30, 0.00, 0.00, 0.00, 10:47:10.110
39, 4679.83, -187500.02, -187500.02, -130853.41, -187500.02, -88825.88, -187500.02, -156483.23, 0.00, 0.00, 0.00, 10:47:10.115
40, 4656.27, -187500.02, -187500.02, -130863.18, -187500.02, -88835.46, -187500.02, -156515.45, 0.00, 0.00, 0.00, 10:47:10.119
41, 4711.77, -187500.02, -187500.02, -130859.89, -187500.02, -88834.91, -187500.02, -156536.28, 0.00, 0.00, 0.00, 10:47:10.123
42, 4658.91, -187500.02, -187500.02, -130873.86, -187500.02, -88850.35, -187500.02, -156572.33, 0.00, 0.00, 0.00, 10:47:10.127
43, 4593.89, -187500.02, -187500.02, -130905.42, -187500.02, -88884.19, -187500.02, -156618.36, 0.00, 0.00, 0.00, 10:47:10.131
44, 4602.87, -187500.02, -187500.02, -130918.56, -187500.02, -88898.36, -187500.02, -156639.55, 0.00, 0.00, 0.00, 10:47:10.134
45, 4736.29, -187500.02, -187500.02, -130946.38, -187500.02, -88930.03, -187500.02, -156679.83, 0.88, -0.26, 0.37, 10:47:10.138
46, 4742.28, -187500.02, -187500.02, -130999.55, -187500.02, -88986.25, -187500.02, -156754.30, 0.00, 0.00, 0.00, 10:47:10.143
47, 4602.81, -187500.02, -187500.02, -131014.79, -187500.02, -89005.34, -187500.02, -156796.16, 0.00, 0.00, 0.00, 10:47:10.148
48, 4572.45, -187500.02, -187500.02, -131018.45, -187500.02, -89013.38, -187500.02, -156827.02, 0.00, 0.00, 0.00, 10:47:10.151
49, 4682.76, -187500.02, -187500.02, -131011.91, -187500.02, -89012.73, -187500.02, -156843.84, 0.00, 0.00, 0.00, 10:47:10.154
50, 4794.31, -187500.02, -187500.02, -131072.61, -187500.02, -89077.84, -187500.02, -156918.31, 0.00, 0.00, 0.00, 10:47:10.159
51, 4733.99, -187500.02, -187500.02, -131133.64, -187500.02, -89140.84, -187500.02, -156992.92, 0.00, 0.00, 0.00, 10:47:10.163
52, 4661.52, -187500.02, -187500.02, -131174.03, -187500.02, -89182.20, -187500.02, -157054.22, 0.00, 0.00, 0.00, 10:47:10.167
53, 4686.04, -187500.02, -187500.02, -131157.14, -187500.02, -89170.65, -187500.02, -157065.20, 0.00, 0.00, 0.00, 10:47:10.171
54, 4696.46, -187500.02, -187500.02, -131162.53, -187500.02, -89180.66, -187500.02, -157095.56, 0.00, 0.00, 0.00, 10:47:10.175
55, 4595.54, -187500.02, -187500.02, -131152.25, -187500.02, -89175.95, -187500.02, -157103.64, 0.88, -0.25, 0.37, 10:47:10.179
56, 4606.31, -187500.02, -187500.02, -131205.55, -187500.02, -89233.55, -187500.02, -157168.95, 0.00, 0.00, 0.00, 10:47:10.182
57, 4684.55, -187500.02, -187500.02, -131239.97, -187500.02, -89268.26, -187500.02, -157214.94, 0.00, 0.00, 0.00, 10:47:10.186
58, 4693.75, -187500.02, -187500.02, -131226.81, -187500.02, -89260.17, -187500.02, -157224.94, 0.00, 0.00, 0.00, 10:47:10.191
59, 4676.19, -187500.02, -187500.02, -131294.17, -187500.02, -89333.02, -187500.02, -157317.05, 0.00, 0.00, 0.00, 10:47:10.195
60, 4569.30, -187500.02, -187500.02, -131328.83, -187500.02, -89370.12, -187500.02, -157372.08, 0.00, 0.00, 0.00, 10:47:10.200
61, 4587.81, -187500.02, -187500.02, -131301.63, -187500.02, -89345.44, -187500.02, -157356.59, 0.00, 0.00, 0.00, 10:47:10.202
62, 4784.08, -187500.02, -187500.02, -131349.22, -187500.02, -89394.52, -187500.02, -157413.92, 0.00, 0.00, 0.00, 10:47:10.206
63, 4789.89, -187500.02, -187500.02, -131421.69, -187500.02, -89467.13, -187500.02, -157502.70, 0.00, 0.00, 0.00, 10:47:10.211
64, 4655.64, -187500.02, -187500.02, -131445.38, -187500.02, -89491.55, -187500.02, -157549.81, 0.00, 0.00, 0.00, 10:47:10.215
65, 4646.48, -187500.02, -187500.02, -131451.39, -187500.02, -89500.07, -187500.02, -157580.42, 0.88, -0.25, 0.36, 10:47:10.218
66, 4719.53, -187500.02, -187500.02, -131451.31, -187500.02, -89503.06, -187500.02, -157598.48, 0.00, 0.00, 0.00, 10:47:10.223
67, 4754.35, -187500.02, -187500.02, -131495.28, -187500.02, -89550.30, -187500.02, -157652.53, 0.00, 0.00, 0.00, 10:47:10.228
68, 4654.55, -187500.02, -187500.02, -131549.00, -187500.02, -89605.28, -187500.02, -157718.00, 0.00, 0.00, 0.00, 10:47:10.231
69, 4553.41, -187500.02, -187500.02, -131505.64, -187500.02, -89567.44, -187500.02, -157697.05, 0.00, 0.00, 0.00, 10:47:10.234
70, 4648.65, -187500.02, -187500.02, -131506.75, -187500.02, -89575.10, -187500.02, -157722.94, 0.00, 0.00, 0.00, 10:47:10.238
71, 4633.72, -187500.02, -187500.02, -131501.95, -187500.02, -89575.10, -187500.02, -157734.67, 0.00, 0.00, 0.00, 10:47:10.243
72, 4625.09, -187500.02, -187500.02, -131566.25, -187500.02, -89641.51, -187500.02, -157809.53, 0.00, 0.00, 0.00, 10:47:10.247
73, 4618.70, -187500.02, -187500.02, -131611.30, -187500.02, -89687.58, -187500.02, -157866.03, 0.00, 0.00, 0.00, 10:47:10.251
74, 4695.43, -187500.02, -187500.02, -131630.47, -187500.02, -89709.05, -187500.02, -157905.50, 0.89, -0.26, 0.36, 10:47:10.254
75, 4659.40, -187500.02, -187500.02, -131601.52, -187500.02, -89684.56, -187500.02, -157901.39, 0.00, 0.00, 0.00, 10:47:10.259
76, 4586.11, -187500.02, -187500.02, -131605.30, -187500.02, -89693.77, -187500.02, -157925.44, 0.00, 0.00, 0.00, 10:47:10.262
77, 4633.05, -187500.02, -187500.02, -131658.39, -187500.02, -89750.16, -187500.02, -157988.36, 0.00, 0.00, 0.00, 10:47:10.267
78, 4803.30, -187500.02, -187500.02, -131748.13, -187500.02, -89839.05, -187500.02, -158088.61, 0.00, 0.00, 0.00, 10:47:10.270
79, 4767.60, -187500.02, -187500.02, -131746.41, -187500.02, -89838.97, -187500.02, -158107.50, 0.00, 0.00, 0.00, 10:47:10.274
80, 4642.43, -187500.02, -187500.02, -131755.61, -187500.02, -89851.20, -187500.02, -158140.16, 0.00, 0.00, 0.00, 10:47:10.279
81, 4592.30, -187500.02, -187500.02, -131783.41, -187500.02, -89882.02, -187500.02, -158185.03, 0.00, 0.00, 0.00, 10:47:10.283
82, 4673.01, -187500.02, -187500.02, -131798.33, -187500.02, -89901.35, -187500.02, -158211.30, 0.00, 0.00, 0.00, 10:47:10.285
83, 4768.92, -187500.02, -187500.02, -131827.95, -187500.02, -89933.63, -187500.02, -158252.41, 0.00, 0.00, 0.00, 10:47:10.289
84, 4647.78, -187500.02, -187500.02, -131833.31, -187500.02, -89942.74, -187500.02, -158280.09, 0.89, -0.26, 0.37, 10:47:10.295
85, 4576.54, -187500.02, -187500.02, -131871.53, -187500.02, -89985.35, -187500.02, -158344.14, 0.00, 0.00, 0.00, 10:47:10.299
86, 4563.85, -187500.02, -187500.02, -131856.73, -187500.02, -89973.99, -187500.02, -158349.88, 0.00, 0.00, 0.00, 10:47:10.303
87, 4719.21, -187500.02, -187500.02, -131884.41, -187500.02, -90008.26, -187500.02, -158391.86, 0.00, 0.00, 0.00, 10:47:10.307
88, 4712.19, -187500.02, -187500.02, -131929.88, -187500.02, -90058.88, -187500.02, -158448.31, 0.00, 0.00, 0.00, 10:47:10.310
89, 4599.63, -187500.02, -187500.02, -131960.66, -187500.02, -90091.99, -187500.02, -158496.23, 0.00, 0.00, 0.00, 10:47:10.314
90, 4531.86, -187500.02, -187500.02, -131915.67, -187500.02, -90050.52, -187500.02, -158473.95, 0.00, 0.00, 0.00, 10:47:10.318
91, 4617.33, -187500.02, -187500.02, -131879.63, -187500.02, -90020.84, -187500.02, -158462.83, 0.00, 0.00, 0.00, 10:47:10.321
92, 4687.63, -187500.02, -187500.02, -131916.58, -187500.02, -90065.84, -187500.02, -158519.55, 0.00, 0.00, 0.00, 10:47:10.326
93, 4675.16, -187500.02, -187500.02, -131995.08, -187500.02, -90147.87, -187500.02, -158610.36, 0.00, 0.00, 0.00, 10:47:10.331
94, 4626.32, -187500.02, -187500.02, -132014.81, -187500.02, -90169.95, -187500.02, -158647.56, 0.89, -0.26, 0.36, 10:47:10.335
95, 4699.19, -187500.02, -187500.02, -132018.81, -187500.02, -90179.16, -187500.02, -158676.09, 0.00, 0.00, 0.00, 10:47:10.337
96, 4678.13, -187500.02, -187500.02, -132029.20, -187500.02, -90192.98, -187500.02, -158706.91, 0.00, 0.00, 0.00, 10:47:10.342
97, 4615.72, -187500.02, -187500.02, -132064.78, -187500.02, -90233.32, -187500.02, -158755.14, 0.00, 0.00, 0.00, 10:47:10.346
98, 4628.20, -187500.02, -187500.02, -132116.66, -187500.02, -90289.66, -187500.02, -158812.02, 0.00, 0.00, 0.00, 10:47:10.349
99, 4683.18, -187500.02, -187500.02, -132117.56, -187500.02, -90294.00, -187500.02, -158822.73, 0.00, 0.00, 0.00, 10:47:10.355
100, 4676.95, -187500.02, -187500.02, -132121.84, -187500.02, -90302.23, -187500.02, -158847.30, 0.00, 0.00, 0.00, 10:47:10.358
101, 4529.42, -187500.02, -187500.02, -132110.41, -187500.02, -90295.37, -187500.02, -158858.56, 0.00, 0.00, 0.00, 10:47:10.363
102, 4431.30, -187500.02, -187500.02, -132083.14, -187500.02, -90271.70, -187500.02, -158847.73, 0.00, 0.00, 0.00, 10:47:10.366
103, 4567.38, -187500.02, -187500.02, -132079.61, -187500.02, -90273.84, -187500.02, -158854.53, 0.00, 0.00, 0.00, 10:47:10.370
104, 4755.11, -187500.02, -187500.02, -132165.95, -187500.02, -90366.13, -187500.02, -158950.95, 0.89, -0.26, 0.36, 10:47:10.373
105, 4681.89, -187500.02, -187500.02, -132215.02, -187500.02, -90421.23, -187500.02, -159017.19, 0.00, 0.00, 0.00, 10:47:10.377
106, 4571.29, -187500.02, -187500.02, -132237.98, -187500.02, -90448.14, -187500.02, -159062.08, 0.00, 0.00, 0.00, 10:47:10.382
107, 4587.94, -187500.02, -187500.02, -132232.48, -187500.02, -90445.52, -187500.02, -159077.61, 0.00, 0.00, 0.00, 10:47:10.387
108, 4657.37, -187500.02, -187500.02, -132234.66, -187500.02, -90451.96, -187500.02, -159095.05, 0.00, 0.00, 0.00, 10:47:10.390
109, 4626.05, -187500.02, -187500.02, -132261.23, -187500.02, -90485.47, -187500.02, -159130.09, 0.00, 0.00, 0.00, 10:47:10.394
110, 4539.71, -187500.02, -187500.02, -132278.09, -187500.02, -90506.62, -187500.02, -159154.19, 0.00, 0.00, 0.00, 10:47:10.398
111, 4578.67, -187500.02, -187500.02, -132293.09, -187500.02, -90529.70, -187500.02, -159180.20, 0.00, 0.00, 0.00, 10:47:10.402
112, 4642.61, -187500.02, -187500.02, -132302.19, -187500.02, -90545.57, -187500.02, -159207.98, 0.00, 0.00, 0.00, 10:47:10.406
113, 4592.57, -187500.02, -187500.02, -132319.13, -187500.02, -90567.41, -187500.02, -159245.20, 0.00, 0.00, 0.00, 10:47:10.411
114, 4446.21, -187500.02, -187500.02, -132317.88, -187500.02, -90571.68, -187500.02, -159264.28, 0.90, -0.26, 0.37, 10:47:10.414
115, 4479.98, -187500.02, -187500.02, -132311.34, -187500.02, -90570.02, -187500.02, -159273.19, 0.00, 0.00, 0.00, 10:47:10.418
116, 4630.39, -187500.02, -187500.02, -132319.19, -187500.02, -90581.80, -187500.02, -159289.86, 0.00, 0.00, 0.00, 10:47:10.422
117, 4684.95, -187500.02, -187500.02, -132362.44, -187500.02, -90628.92, -187500.02, -159343.72, 0.00, 0.00, 0.00, 10:47:10.426
118, 4633.05, -187500.02, -187500.02, -132442.06, -187500.02, -90714.91, -187500.02, -159441.06, 0.00, 0.00, 0.00, 10:47:10.430
119, 4562.06, -187500.02, -187500.02, -132458.64, -187500.02, -90737.26, -187500.02, -159476.05, 0.00, 0.00, 0.00, 10:47:10.434
120, 4663.13, -187500.02, -187500.02, -132478.20, -187500.02, -90759.26, -187500.02, -159515.95, 0.00, 0.00, 0.00, 10:47:10.439
121, 4624.84, -187500.02, -187500.02, -132478.52, -187500.02, -90762.92, -187500.02, -159532.80, 0.00, 0.00, 0.00, 10:47:10.443
122, 4511.45, -187500.02, -187500.02, -132458.09, -187500.02, -90746.45, -187500.02, -159524.16, 0.00, 0.00, 0.00, 10:47:10.446
123, 4554.35, -187500.02, -187500.02, -132513.31, -187500.02, -90805.23, -187500.02, -159587.78, 0.89, -0.27, 0.37, 10:47:10.450
124, 4622.92, -187500.02, -187500.02, -132511.70, -187500.02, -90808.25, -187500.02, -159593.34, 0.00, 0.00, 0.00, 10:47:10.453
125, 4680.14, -187500.02, -187500.02, -132546.42, -187500.02, -90850.45, -187500.02, -159645.83, 0.00, 0.00, 0.00, 10:47:10.458
126, 4548.49, -187500.02, -187500.02, -132563.63, -187500.02, -90876.83, -187500.02, -159684.23, 0.00, 0.00, 0.00, 10:47:10.462
127, 4440.89, -187500.02, -187500.02, -132551.45, -187500.02, -90870.73, -187500.02, -159693.39, 0.00, 0.00, 0.00, 10:47:10.466
128, 4527.68, -187500.02, -187500.02, -132543.25, -187500.02, -90864.80, -187500.02, -159699.78, 0.00, 0.00, 0.00, 10:47:10.471
129, 4674.08, -187500.02, -187500.02, -132577.61, -187500.02, -90904.03, -187500.02, -159742.19, 0.00, 0.00, 0.00, 10:47:10.474
130, 4633.76, -187500.02, -187500.02, -132601.78, -187500.02, -90933.55, -187500.02, -159775.83, 0.00, 0.00, 0.00, 10:47:10.478
131, 4566.26, -187500.02, -187500.02, -132640.91, -187500.02, -90976.85, -187500.02, -159830.61, 0.00, 0.00, 0.00, 10:47:10.482
132, 4590.40, -187500.02, -187500.02, -132652.69, -187500.02, -90992.54, -187500.02, -159862.91, 0.00, 0.00, 0.00, 10:47:10.485
133, 4628.82, -187500.02, -187500.02, -132640.36, -187500.02, -90988.12, -187500.02, -159875.73, 0.88, -0.26, 0.37, 10:47:10.490
134, 4576.92, -187500.02, -187500.02, -132654.02, -187500.02, -91007.00, -187500.02, -159904.80, 0.00, 0.00, 0.00, 10:47:10.495
135, 4515.45, -187500.02, -187500.02, -132678.63, -187500.02, -91038.38, -187500.02, -159936.00, 0.00, 0.00, 0.00, 10:47:10.497
136, 4560.56, -187500.02, -187500.02, -132697.14, -187500.02, -91062.41, -187500.02, -159961.97, 0.00, 0.00, 0.00, 10:47:10.501
137, 4658.42, -187500.02, -187500.02, -132717.34, -187500.02, -91084.16, -187500.02, -159997.72, 0.00, 0.00, 0.00, 10:47:10.506
138, 4614.25, -187500.02, -187500.02, -132751.81, -187500.02, -91124.91, -187500.02, -160052.14, 0.00, 0.00, 0.00, 10:47:10.510
139, 4467.69, -187500.02, -187500.02, -132751.52, -187500.02, -91133.06, -187500.02, -160073.27, 0.00, 0.00, 0.00, 10:47:10.514
140, 4483.71, -187500.02, -187500.02, -132746.64, -187500.02, -91134.07, -187500.02, -160080.86, 0.00, 0.00, 0.00, 10:47:10.518
141, 4634.37, -187500.02, -187500.02, -132765.78, -187500.02, -91155.53, -187500.02, -160106.70, 0.00, 0.00, 0.00, 10:47:10.523
142, 4678.58, -187500.02, -187500.02, -132804.30, -187500.02, -91197.30, -187500.02, -160153.22, 0.00, 0.00, 0.00, 10:47:10.526
143, 4575.02, -187500.02, -187500.02, -132832.25, -187500.02, -91232.24, -187500.02, -160197.55, 0.89, -0.26, 0.38, 10:47:10.529
144, 4542.57, -187500.02, -187500.02, -132844.06, -187500.02, -91249.18, -187500.02, -160229.06, 0.00, 0.00, 0.00, 10:47:10.533
145, 4620.19, -187500.02, -187500.02, -132849.09, -187500.02, -91256.11, -187500.02, -160254.27, 0.00, 0.00, 0.00, 10:47:10.538
146, 4639.13, -187500.02, -187500.02, -132858.77, -187500.02, -91268.36, -187500.02, -160279.02, 0.00, 0.00, 0.00, 10:47:10.542
147, 4555.42, -187500.02, -187500.02, -132875.33, -187500.02, -91290.31, -187500.02, -160304.52, 0.00, 0.00, 0.00, 10:47:10.546
148, 4508.44, -187500.02, -187500.02, -132873.20, -187500.02, -91291.25, -187500.02, -160309.09, 0.00, 0.00, 0.00, 10:47:10.550
149, 4616.77, -187500.02, -187500.02, -132897.30, -187500.02, -91320.51, -187500.02, -160344.39, 0.00, 0.00, 0.00, 10:47:10.554
150, 4621.69, -187500.02, -187500.02, -132905.45, -187500.02, -91334.30, -187500.02, -160369.61, 0.00, 0.00, 0.00, 10:47:10.557
151, 4475.69, -187500.02, -187500.02, -132890.77, -187500.02, -91322.56, -187500.02, -160375.59, 0.00, 0.00, 0.00, 10:47:10.562
152, 4405.42, -187500.02, -187500.02, -132886.17, -187500.02, -91321.38, -187500.02, -160390.03, 0.00, 0.00, 0.00, 10:47:10.566
153, 4528.62, -187500.02, -187500.02, -132908.77, -187500.02, -91345.25, -187500.02, -160418.08, 0.89, -0.26, 0.37, 10:47:10.570
154, 4618.07, -187500.02, -187500.02, -132926.73, -187500.02, -91369.50, -187500.02, -160440.06, 0.00, 0.00, 0.00, 10:47:10.574
155, 4590.02, -187500.02, -187500.02, -132957.84, -187500.02, -91406.31, -187500.02, -160483.53, 0.00, 0.00, 0.00, 10:47:10.579
156, 4546.61, -187500.02, -187500.02, -133009.48, -187500.02, -91463.00, -187500.02, -160554.39, 0.00, 0.00, 0.00, 10:47:10.582
157, 4574.64, -187500.02, -187500.02, -133023.31, -187500.02, -91484.26, -187500.02, -160588.27, 0.00, 0.00, 0.00, 10:47:10.585
158, 4561.21, -187500.02, -187500.02, -132971.39, -187500.02, -91440.11, -187500.02, -160556.84, 0.00, 0.00, 0.00, 10:47:10.588
159, 4595.65, -187500.02, -187500.02, -133014.64, -187500.02, -91487.23, -187500.02, -160609.22, 0.00, 0.00, 0.00, 10:47:10.594
160, 4568.14, -187500.02, -187500.02, -133093.02, -187500.02, -91568.52, -187500.02, -160687.77, 0.00, 0.00, 0.00, 10:47:10.598
161, 4531.55, -187500.02, -187500.02, -133086.48, -187500.02, -91565.75, -187500.02, -160690.63, 0.00, 0.00, 0.00, 10:47:10.601
162, 4537.58, -187500.02, -187500.02, -133031.03, -187500.02, -91515.21, -187500.02, -160654.80, 0.89, -0.26, 0.37, 10:47:10.606
163, 4503.34, -187500.02, -187500.02, -133029.31, -187500.02, -91517.38, -187500.02, -160674.14, 0.00, 0.00, 0.00, 10:47:10.610
164, 4441.43, -187500.02, -187500.02, -133054.45, -187500.02, -91545.95, -187500.02, -160710.36, 0.00, 0.00, 0.00, 10:47:10.614
165, 4457.32, -187500.02, -187500.02, -133062.48, -187500.02, -91557.64, -187500.02, -160723.31, 0.00, 0.00, 0.00, 10:47:10.618
166, 4604.93, -187500.02, -187500.02, -133095.00, -187500.02, -91594.23, -187500.02, -160761.77, 0.00, 0.00, 0.00, 10:47:10.622
167, 4547.22, -187500.02, -187500.02, -133085.25, -187500.02, -91591.43, -187500.02, -160768.42, 0.00, 0.00, 0.00, 10:47:10.626
168, 4475.62, -187500.02, -187500.02, -133103.89, -187500.02, -91616.47, -187500.02, -160809.44, 0.00, 0.00, 0.00, 10:47:10.630
169, 4455.37, -187500.02, -187500.02, -133115.09, -187500.02, -91633.30, -187500.02, -160839.44, 0.00, 0.00, 0.00, 10:47:10.633
170, 4625.40, -187500.02, -187500.02, -133149.77, -187500.02, -91672.68, -187500.02, -160884.52, 0.00, 0.00, 0.00, 10:47:10.637
171, 4669.26, -187500.02, -187500.02, -133197.44, -187500.02, -91722.50, -187500.02, -160932.23, 0.00, 0.00, 0.00, 10:47:10.641
172, 4533.69, -187500.02, -187500.02, -133186.13, -187500.02, -91712.47, -187500.02, -160926.59, 0.89, -0.25, 0.38, 10:47:10.646
173, 4464.02, -187500.02, -187500.02, -133193.19, -187500.02, -91723.78, -187500.02, -160950.66, 0.00, 0.00, 0.00, 10:47:10.650
174, 4534.45, -187500.02, -187500.02, -133189.50, -187500.02, -91723.64, -187500.02, -160966.02, 0.00, 0.00, 0.00, 10:47:10.654
175, 4583.98, -187500.02, -187500.02, -133216.23, -187500.02, -91755.27, -187500.02, -161010.58, 0.00, 0.00, 0.00, 10:47:10.658
176, 4469.63, -187500.02, -187500.02, -133219.16, -187500.02, -91761.91, -187500.02, -161030.14, 0.00, 0.00, 0.00, 10:47:10.662
177, 4416.84, -187500.02, -187500.02, -133224.66, -187500.02, -91772.48, -187500.02, -161045.31, 0.00, 0.00, 0.00, 10:47:10.665
178, 4510.94, -187500.02, -187500.02, -133233.58, -187500.02, -91782.90, -187500.02, -161056.03, 0.00, 0.00, 0.00, 10:47:10.669
179, 4582.73, -187500.02, -187500.02, -133232.17, -187500.02, -91786.19, -187500.02, -161060.41, 0.00, 0.00, 0.00, 10:47:10.674
180, 4497.24, -187500.02, -187500.02, -133230.00, -187500.02, -91787.68, -187500.02, -161073.38, 0.00, 0.00, 0.00, 10:47:10.678
181, 4478.86, -187500.02, -187500.02, -133288.52, -187500.02, -91851.54, -187500.02, -161153.77, 0.00, 0.00, 0.00, 10:47:10.682
182, 4464.00, -187500.02, -187500.02, -133259.47, -187500.02, -91828.09, -187500.02, -161143.80, 0.88, -0.25, 0.38, 10:47:10.687
183, 4610.09, -187500.02, -187500.02, -133276.16, -187500.02, -91847.88, -187500.02, -161174.31, 0.00, 0.00, 0.00, 10:47:10.689
184, 4597.78, -187500.02, -187500.02, -133317.00, -187500.02, -91891.02, -187500.02, -161219.44, 0.00, 0.00, 0.00, 10:47:10.693
185, 4471.24, -187500.02, -187500.02, -133324.28, -187500.02, -91901.48, -187500.02, -161236.03, 0.00, 0.00, 0.00, 10:47:10.697
186, 4491.83, -187500.02, -187500.02, -133339.55, -187500.02, -91919.40, -187500.02, -161266.02, 0.00, 0.00, 0.00, 10:47:10.701
187, 4541.18, -187500.02, -187500.02, -133334.03, -187500.02, -91919.63, -187500.02, -161276.59, 0.00, 0.00, 0.00, 10:47:10.706
188, 4506.13, -187500.02, -187500.02, -133314.27, -187500.02, -91904.58, -187500.02, -161269.69, 0.00, 0.00, 0.00, 10:47:10.710
189, 4449.65, -187500.02, -187500.02, -133337.88, -187500.02, -91930.58, -187500.02, -161298.25, 0.00, 0.00, 0.00, 10:47:10.714
190, 4487.74, -187500.02, -187500.02, -133381.55, -187500.02, -91976.20, -187500.02, -161349.55, 0.00, 0.00, 0.00, 10:47:10.717
191, 4547.95, -187500.02, -187500.02, -133381.02, -187500.02, -91977.96, -187500.02, -161365.55, 0.00, 0.00, 0.00, 10:47:10.722
192, 4504.84, -187500.02, -187500.02, -133364.92, -187500.02, -91967.14, -187500.02, -161368.55, 0.88, -0.26, 0.38, 10:47:10.725
193, 4429.53, -187500.02, -187500.02, -133385.08, -187500.02, -91991.26, -187500.02, -161401.66, 0.00, 0.00, 0.00, 10:47:10.729
194, 4442.27, -187500.02, -187500.02, -133408.69, -187500.02, -92021.19, -187500.02, -161428.97, 0.00, 0.00, 0.00, 10:47:10.733
195, 4567.09, -187500.02, -187500.02, -133411.67, -187500.02, -92030.45, -187500.02, -161438.06, 0.00, 0.00, 0.00, 10:47:10.738
196, 4625.13, -187500.02, -187500.02, -133433.67, -187500.02, -92056.93, -187500.02, -161476.47, 0.00, 0.00, 0.00, 10:47:10.743
197, 4585.75, -187500.02, -187500.02, -133509.77, -187500.02, -92139.32, -187500.02, -161571.41, 0.00, 0.00, 0.00, 10:47:10.745
198, 4458.26, -187500.02, -187500.02, -133508.17, -187500.02, -92141.73, -187500.02, -161584.72, 0.00, 0.00, 0.00, 10:47:10.749
199, 4535.91, -187500.02, -187500.02, -133493.52, -187500.02, -92131.67, -187500.02, -161583.13, 0.00, 0.00, 0.00, 10:47:10.754
200, 4669.75, -187500.02, -187500.02, -133556.61, -187500.02, -92198.23, -187500.02, -161650.58, 0.00, 0.00, 0.00, 10:47:10.757
201, 4578.51, -187500.02, -187500.02, -133588.86, -187500.02, -92232.62, -187500.02, -161688.69, 0.00, 0.00, 0.00, 10:47:10.761
202, 4444.26, -187500.02, -187500.02, -133569.94, -187500.02, -92217.05, -187500.02, -161687.17, 0.89, -0.25, 0.38, 10:47:10.767
203, 4523.52, -187500.02, -187500.02, -133595.05, -187500.02, -92244.98, -187500.02, -161730.05, 0.00, 0.00, 0.00, 10:47:10.769
204, 4547.98, -187500.02, -187500.02, -133559.63, -187500.02, -92213.68, -187500.02, -161705.34, 0.00, 0.00, 0.00, 10:47:10.773
205, 4469.19, -187500.02, -187500.02, -133536.78, -187500.02, -92192.65, -187500.02, -161686.77, 0.00, 0.00, 0.00, 10:47:10.778
206, 4456.98, -187500.02, -187500.02, -133573.19, -187500.02, -92232.10, -187500.02, -161729.89, 0.00, 0.00, 0.00, 10:47:10.781
207, 4479.38, -187500.02, -187500.02, -133583.81, -187500.02, -92243.88, -187500.02, -161752.28, 0.00, 0.00, 0.00, 10:47:10.785
208, 4561.45, -187500.02, -187500.02, -133570.88, -187500.02, -92234.63, -187500.02, -161759.86, 0.00, 0.00, 0.00, 10:47:10.790
209, 4551.91, -187500.02, -187500.02, -133602.77, -187500.02, -92268.87, -187500.02, -161808.23, 0.00, 0.00, 0.00, 10:47:10.795
210, 4497.82, -187500.02, -187500.02, -133640.53, -187500.02, -92307.41, -187500.02, -161858.45, 0.00, 0.00, 0.00, 10:47:10.797
211, 4559.06, -187500.02, -187500.02, -133681.91, -187500.02, -92351.86, -187500.02, -161904.52, 0.89, -0.26, 0.38, 10:47:10.801
212, 4621.00, -187500.02, -187500.02, -133671.45, -187500.02, -92346.41, -187500.02, -161897.91, 0.00, 0.00, 0.00, 10:47:10.805
213, 4584.45, -187500.02, -187500.02, -133662.20, -187500.02, -92341.36, -187500.02, -161897.95, 0.00, 0.00, 0.00, 10:47:10.809
214, 4458.90, -187500.02, -187500.02, -133670.00, -187500.02, -92352.63, -187500.02, -161923.45, 0.00, 0.00, 0.00, 10:47:10.813
215, 4439.21, -187500.02, -187500.02, -133669.19, -187500.02, -92355.08, -187500.02, -161940.70, 0.00, 0.00, 0.00, 10:47:10.817
216, 4531.28, -187500.02, -187500.02, -133668.59, -187500.02, -92357.23, -187500.02, -161953.63, 0.00, 0.00, 0.00, 10:47:10.823
217, 4550.44, -187500.02, -187500.02, -133675.55, -187500.02, -92370.05, -187500.02, -161966.36, 0.00, 0.00, 0.00, 10:47:10.825
218, 4484.18, -187500.02, -187500.02, -133694.08, -187500.02, -92392.59, -187500.02, -161988.55, 0.00, 0.00, 0.00, 10:47:10.830
219, 4432.75, -187500.02, -187500.02, -133710.05, -187500.02, -92411.81, -187500.02, -162011.56, 0.00, 0.00, 0.00, 10:47:10.833
220, 4455.73, -187500.02, -187500.02, -133662.58, -187500.02, -92368.16, -187500.02, -161981.00, 0.00, 0.00, 0.00, 10:47:10.837
221, 4525.22, -187500.02, -187500.02, -133669.39, -187500.02, -92379.06, -187500.02, -162006.59, 0.88, -0.26, 0.38, 10:47:10.842
222, 4489.10, -187500.02, -187500.02, -133694.88, -187500.02, -92407.74, -187500.02, -162042.86, 0.00, 0.00, 0.00, 10:47:10.845
223, 4494.98, -187500.02, -187500.02, -133721.08, -187500.02, -92436.55, -187500.02, -162073.75, 0.00, 0.00, 0.00, 10:47:10.850
224, 4633.85, -187500.02, -187500.02, -133788.02, -187500.02, -92507.77, -187500.02, -162149.14, 0.00, 0.00, 0.00, 10:47:10.853
225, 4646.59, -187500.02, -187500.02, -133797.78, -187500.02, -92523.12, -187500.02, -162174.66, 0.00, 0.00, 0.00, 10:47:10.856
226, 4559.02, -187500.02, -187500.02, -133826.08, -187500.02, -92556.47, -187500.02, -162218.70, 0.00, 0.00, 0.00, 10:47:10.861
227, 4454.37, -187500.02, -187500.02, -133821.97, -187500.02, -92556.34, -187500.02, -162224.95, 0.00, 0.00, 0.00, 10:47:10.865
228, 4514.16, -187500.02, -187500.02, -133808.77, -187500.02, -92544.13, -187500.02, -162212.53, 0.00, 0.00, 0.00, 10:47:10.870
229, 4644.94, -187500.02, -187500.02, -133836.91, -187500.02, -92576.27, -187500.02, -162243.42, 0.00, 0.00, 0.00, 10:47:10.873
230, 4552.58, -187500.02, -187500.02, -133851.05, -187500.02, -92599.16, -187500.02, -162269.20, 0.00, 0.00, 0.00, 10:47:10.877
231, 4434.27, -187500.02, -187500.02, -133849.30, -187500.02, -92602.18, -187500.02, -162286.67, 0.88, -0.26, 0.37, 10:47:10.882
232, 4445.27, -187500.02, -187500.02, -133840.39, -187500.02, -92594.91, -187500.02, -162295.91, 0.00, 0.00, 0.00, 10:47:10.885
233, 4501.37, -187500.02, -187500.02, -133800.94, -187500.02, -92558.21, -187500.02, -162267.56, 0.00, 0.00, 0.00, 10:47:10.890
234, 4478.31, -187500.02, -187500.02, -133786.25, -187500.02, -92546.57, -187500.02, -162257.59, 0.00, 0.00, 0.00, 10:47:10.894
235, 4479.16, -187500.02, -187500.02, -133829.19, -187500.02, -92593.15, -187500.02, -162306.45, 0.00, 0.00, 0.00, 10:47:10.896
236, 4535.15, -187500.02, -187500.02, -133883.02, -187500.02, -92650.68, -187500.02, -162371.09, 0.00, 0.00, 0.00, 10:47:10.901
237, 4592.30, -187500.02, -187500.02, -133870.03, -187500.02, -92638.50, -187500.02, -162372.03, 0.00, 0.00, 0.00, 10:47:10.906
238, 4642.03, -187500.02, -187500.02, -133934.48, -187500.02, -92708.23, -187500.02, -162454.13, 0.00, 0.00, 0.00, 10:47:10.910
239, 4502.92, -187500.02, -187500.02, -133947.34, -187500.02, -92728.87, -187500.02, -162481.23, 0.00, 0.00, 0.00, 10:47:10.913
240, 4527.48, -187500.02, -187500.02, -133963.50, -187500.02, -92751.55, -187500.02, -162500.75, 0.00, 0.00, 0.00, 10:47:10.918
241, 4614.58, -187500.02, -187500.02, -133966.67, -187500.02, -92760.45, -187500.02, -162501.89, 0.89, -0.25, 0.36, 10:47:10.920
242, 4603.23, -187500.02, -187500.02, -133947.73, -187500.02, -92746.77, -187500.02, -162491.03, 0.00, 0.00, 0.00, 10:47:10.924
243, 4519.81, -187500.02, -187500.02, -133980.11, -187500.02, -92783.98, -187500.02, -162540.16, 0.00, 0.00, 0.00, 10:47:10.930
244, 4410.98, -187500.02, -187500.02, -133962.42, -187500.02, -92768.27, -187500.02, -162533.59, 0.00, 0.00, 0.00, 10:47:10.934
245, 4480.76, -187500.02, -187500.02, -133938.33, -187500.02, -92747.73, -187500.02, -162521.61, 0.00, 0.00, 0.00, 10:47:10.937
246, 4550.79, -187500.02, -187500.02, -133942.47, -187500.02, -92755.83, -187500.02, -162530.45, 0.00, 0.00, 0.00, 10:47:10.941
247, 4523.57, -187500.02, -187500.02, -133992.95, -187500.02, -92810.95, -187500.02, -162586.16, 0.00, 0.00, 0.00, 10:47:10.945
248, 4421.51, -187500.02, -187500.02, -134004.42, -187500.02, -92824.49, -187500.02, -162608.42, 0.00, 0.00, 0.00, 10:47:10.949
249, 4399.11, -187500.02, -187500.02, -133934.94, -187500.02, -92759.36, -187500.02, -162550.55, 0.00, 0.00, 0.00, 10:47:10.952
250, 4548.51, -187500.02, -187500.02, -133936.98, -187500.02, -92766.77, -187500.02, -162560.80, 0.00, 0.00, 0.00, 10:47:10.956
251, 4629.11, -187500.02, -187500.02, -134037.19, -187500.02, -92869.62, -187500.02, -162666.14, 0.89, -0.25, 0.37, 10:47:10.961
252, 4576.34, -187500.02, -187500.02, -134113.28, -187500.02, -92949.10, -187500.02, -162751.89, 0.00, 0.00, 0.00, 10:47:10.966
253, 4529.07, -187500.02, -187500.02, -134085.50, -187500.02, -92924.52, -187500.02, -162738.44, 0.00, 0.00, 0.00, 10:47:10.969
254, 4532.89, -187500.02, -187500.02, -134035.38, -187500.02, -92878.13, -187500.02, -162703.02, 0.00, 0.00, 0.00, 10:47:10.973
255, 4539.06, -187500.02, -187500.02, -134051.31, -187500.02, -92898.63, -187500.02, -162727.56, 0.00, 0.00, 0.00, 10:47:10.977
0, 4495.41, -187500.02, -187500.02, -134093.81, -187500.02, -92943.73, -187500.02, -162771.14, 0.00, 0.00, 0.00, 10:47:10.980
1, 4540.67, -187500.02, -187500.02, -134118.02, -187500.02, -92972.03, -187500.02, -162799.86, 0.00, 0.00, 0.00, 10:47:10.985
2, 4578.73, -187500.02, -187500.02, -134108.20, -187500.02, -92964.75, -187500.02, -162802.03, 0.00, 0.00, 0.00, 10:47:10.989
3, 4502.09, -187500.02, -187500.02, -134087.66, -187500.02, -92946.40, -187500.02, -162798.23, 0.00, 0.00, 0.00, 10:47:10.994
4, 4380.54, -187500.02, -187500.02, -134069.88, -187500.02, -92930.50, -187500.02, -162792.22, 0.88, -0.26, 0.37, 10:47:10.997
5, 4386.71, -187500.02, -187500.02, -134037.75, -187500.02, -92902.59, -187500.02, -162762.84, 0.00, 0.00, 0.00, 10:47:11.001
6, 4596.55, -187500.02, -187500.02, -134078.08, -187500.02, -92947.54, -187500.02, -162808.33, 0.00, 0.00, 0.00, 10:47:11.004
7, 4650.91, -187500.02, -187500.02, -134138.20, -187500.02, -93012.36, -187500.02, -162878.50, 0.00, 0.00, 0.00, 10:47:11.011
8, 4539.33, -187500.02, -187500.02, -134181.36, -187500.02, -93059.74, -187500.02, -162934.31, 0.00, 0.00, 0.00, 10:47:11.013
9, 4469.05, -187500.02, -187500.02, -134178.34, -187500.02, -93059.67, -187500.02, -162943.73, 0.00, 0.00, 0.00, 10:47:11.018
10, 4520.15, -187500.02, -187500.02, -134146.92, -187500.02, -93031.11, -187500.02, -162924.70, 0.00, 0.00, 0.00, 10:47:11.022
11, 4569.39, -187500.02, -187500.02, -134147.88, -187500.02, -93036.52, -187500.02, -162930.89, 0.00, 0.00, 0.00, 10:47:11.025
12, 4515.68, -187500.02, -187500.02, -134183.38, -187500.02, -93073.60, -187500.02, -162968.44, 0.00, 0.00, 0.00, 10:47:11.029
13, 4463.04, -187500.02, -187500.02, -134207.89, -187500.02, -93101.36, -187500.02, -163003.38, 0.00, 0.00, 0.00, 10:47:11.033
14, 4501.84, -187500.02, -187500.02, -134191.64, -187500.02, -93086.43, -187500.02, -163002.73, 0.89, -0.26, 0.37, 10:47:11.036
15, 4520.51, -187500.02, -187500.02, -134178.70, -187500.02, -93077.04, -187500.02, -163005.48, 0.00, 0.00, 0.00, 10:47:11.040
16, 4445.29, -187500.02, -187500.02, -134171.02, -187500.02, -93073.87, -187500.02, -163005.19, 0.00, 0.00, 0.00, 10:47:11.046
17, 4382.35, -187500.02, -187500.02, -134168.22, -187500.02, -93073.47, -187500.02, -163001.45, 0.00, 0.00, 0.00, 10:47:11.050
18, 4531.12, -187500.02, -187500.02, -134189.39, -187500.02, -93094.14, -187500.02, -163024.59, 0.00, 0.00, 0.00, 10:47:11.052
19, 4642.66, -187500.02, -187500.02, -134239.45, -187500.02, -93145.17, -187500.02, -163084.78, 0.00, 0.00, 0.00, 10:47:11.057
20, 4523.17, -187500.02, -187500.02, -134228.41, -187500.02, -93139.83, -187500.02, -163088.97, 0.00, 0.00, 0.00, 10:47:11.061
21, 4439.28, -187500.02, -187500.02, -134245.94, -187500.02, -93160.55, -187500.02, -163121.34, 0.00, 0.00, 0.00, 10:47:11.064
22, 4492.95, -187500.02, -187500.02, -134243.70, -187500.02, -93160.99, -187500.02, -163126.67, 0.00, 0.00, 0.00, 10:47:11.069
23, 4615.79, -187500.02, -187500.02, -134261.66, -187500.02, -93182.38, -187500.02, -163145.84, 0.00, 0.00, 0.00, 10:47:11.073
24, 4620.24, -187500.02, -187500.02, -134313.77, -187500.02, -93235.90, -187500.02, -163200.92, 0.88, -0.25, 0.37, 10:47:11.078
25, 4481.19, -187500.02, -187500.02, -134331.08, -187500.02, -93253.69, -187500.02, -163228.56, 0.00, 0.00, 0.00, 10:47:11.081
26, 4448.27, -187500.02, -187500.02, -134299.84, -187500.02, -93227.00, -187500.02, -163214.09, 0.00, 0.00, 0.00, 10:47:11.084
27, 4551.96, -187500.02, -187500.02, -134294.33, -187500.02, -93227.83, -187500.02, -163221.64, 0.00, 0.00, 0.00, 10:47:11.088
28, 4542.50, -187500.02, -187500.02, -134303.22, -187500.02, -93241.80, -187500.02, -163234.34, 0.00, 0.00, 0.00, 10:47:11.093
29, 4499.25, -187500.02, -187500.02, -134339.91, -187500.02, -93281.94, -187500.02, -163274.55, 0.00, 0.00, 0.00, 10:47:11.097
30, 4477.12, -187500.02, -187500.02, -134362.08, -187500.02, -93306.77, -187500.02, -163303.06, 0.00, 0.00, 0.00, 10:47:11.101
31, 4536.44, -187500.02, -187500.02, -134344.59, -187500.02, -93292.83, -187500.02, -163299.42, 0.00, 0.00, 0.00, 10:47:11.105
32, 4517.71, -187500.02, -187500.02, -134334.05, -187500.02, -93286.41, -187500.02, -163305.03, 0.00, 0.00, 0.00, 10:47:11.109
33, 4439.37, -187500.02, -187500.02, -134331.95, -187500.02, -93284.80, -187500.02, -163314.06, 0.00, 0.00, 0.00, 10:47:11.113
34, 4439.37, -187500.02, -187500.02, -134322.02, -187500.02, -93275.97, -187500.02, -163307.69, 0.88, -0.25, 0.38, 10:47:11.116
35, 4600.61, -187500.02, -187500.02, -134336.44, -187500.02, -93289.92, -187500.02, -163321.83, 0.00, 0.00, 0.00, 10:47:11.121
36, 4647.84, -187500.02, -187500.02, -134379.28, -187500.02, -93334.20, -187500.02, -163370.13, 0.00, 0.00, 0.00, 10:47:11.125
37, 4488.61, -187500.02, -187500.02, -134370.69, -187500.02, -93331.49, -187500.02, -163376.97, 0.00, 0.00, 0.00, 10:47:11.128
38, 4403.61, -187500.02, -187500.02, -134362.23, -187500.02, -93326.38, -187500.02, -163384.63, 0.00, 0.00, 0.00, 10:47:11.133
39, 4499.36, -187500.02, -187500.02, -134369.94, -187500.02, -93335.83, -187500.02, -163406.25, 0.00, 0.00, 0.00, 10:47:11.137
40, 4571.11, -187500.02, -187500.02, -134379.63, -187500.02, -93348.08, -187500.02, -163421.28, 0.00, 0.00, 0.00, 10:47:11.140
41, 4522.61, -187500.02, -187500.02, -134404.86, -187500.02, -93378.63, -187500.02, -163446.36, 0.00, 0.00, 0.00, 10:47:11.145
42, 4489.33, -187500.02, -187500.02, -134436.59, -187500.02, -93413.21, -187500.02, -163480.59, 0.00, 0.00, 0.00, 10:47:11.149
43, 4564.74, -187500.02, -187500.02, -134475.95, -187500.02, -93454.36, -187500.02, -163528.58, 0.88, -0.25, 0.38, 10:47:11.152
44, 4565.43, -187500.02, -187500.02, -134456.42, -187500.02, -93437.09, -187500.02, -163522.16, 0.00, 0.00, 0.00, 10:47:11.157
45, 4458.68, -187500.02, -187500.02, -134436.13, -187500.02, -93419.78, -187500.02, -163515.83, 0.00, 0.00, 0.00, 10:47:11.162
46, 4387.18, -187500.02, -187500.02, -134411.77, -187500.02, -93398.26, -187500.02, -163498.28, 0.00, 0.00, 0.00, 10:47:11.164
47, 4589.75, -187500.02, -187500.02, -134495.42, -187500.02, -93486.05, -187500.02, -163581.19, 0.00, 0.00, 0.00, 10:47:11.169
48, 4668.30, -187500.02, -187500.02, -134540.64, -187500.02, -93534.56, -187500.02, -163628.13, 0.00, 0.00, 0.00, 10:47:11.173
49, 4540.51, -187500.02, -187500.02, -134514.97, -187500.02, -93512.21, -187500.02, -163616.31, 0.00, 0.00, 0.00, 10:47:11.176
50, 4429.51, -187500.02, -187500.02, -134509.98, -187500.02, -93509.77, -187500.02, -163626.88, 0.00, 0.00, 0.00, 10:47:11.181
51, 4451.57, -187500.02, -187500.02, -134509.73, -187500.02, -93512.72, -187500.02, -163634.55, 0.00, 0.00, 0.00, 10:47:11.185
52, 4559.78, -187500.02, -187500.02, -134502.53, -187500.02, -93511.47, -187500.02, -163629.66, 0.00, 0.00, 0.00, 10:47:11.188
53, 4595.52, -187500.02, -187500.02, -134542.13, -187500.02, -93556.93, -187500.02, -163672.16, 0.88, -0.26, 0.38, 10:47:11.192
54, 4472.94, -187500.02, -187500.02, -134567.94, -187500.02, -93586.10, -187500.02, -163705.42, 0.00, 0.00, 0.00, 10:47:11.197
55, 4433.71, -187500.02, -187500.02, -134566.03, -187500.02, -93585.01, -187500.02, -163716.39, 0.00, 0.00, 0.00, 10:47:11.200
56, 4439.86, -187500.02, -187500.02, -134506.41, -187500.02, -93527.23, -187500.02, -163668.16, 0.00, 0.00, 0.00, 10:47:11.205
57, 4518.14, -187500.02, -187500.02, -134502.09, -187500.02, -93525.26, -187500.02, -163671.69, 0.00, 0.00, 0.00, 10:47:11.209
58, 4539.93, -187500.02, -187500.02, -134574.53, -187500.02, -93598.30, -187500.02, -163745.13, 0.00, 0.00, 0.00, 10:47:11.212
59, 4512.28, -187500.02, -187500.02, -134590.73, -187500.02, -93616.84, -187500.02, -163764.55, 0.00, 0.00, 0.00, 10:47:11.216
60, 4579.54, -187500.02, -187500.02, -134597.63, -187500.02, -93628.62, -187500.02, -163784.02, 0.00, 0.00, 0.00, 10:47:11.220
61, 4576.92, -187500.02, -187500.02, -134602.95, -187500.02, -93639.55, -187500.02, -163803.69, 0.00, 0.00, 0.00, 10:47:11.225
62, 4426.94, -187500.02, -187500.02, -134577.59, -187500.02, -93616.30, -187500.02, -163790.69, 0.00, 0.00, 0.00, 10:47:11.229
63, 4386.93, -187500.02, -187500.02, -134571.47, -187500.02, -93610.80, -187500.02, -163789.91, 0.89, -0.26, 0.38, 10:47:11.233
64, 4525.04, -187500.02, -187500.02, -134594.95, -187500.02, -93637.31, -187500.02, -163813.83, 0.00, 0.00, 0.00, 10:47:11.237
65, 4613.09, -187500.02, -187500.02, -134628.80, -187500.02, -93673.90, -187500.02, -163847.67, 0.00, 0.00, 0.00, 10:47:11.240
66, 4523.57, -187500.02, -187500.02, -134660.38, -187500.02, -93707.25, -187500.02, -163887.70, 0.00, 0.00, 0.00, 10:47:11.245
67, 4435.55, -187500.02, -187500.02, -134672.31, -187500.02, -93723.74, -187500.02, -163914.09, 0.00, 0.00, 0.00, 10:47:11.248
68, 4450.48, -187500.02, -187500.02, -134647.34, -187500.02, -93701.28, -187500.02, -163899.69, 0.00, 0.00, 0.00, 10:47:11.253
69, 4547.57, -187500.02, -187500.02, -134623.34, -187500.02, -93679.17, -187500.02, -163879.83, 0.00, 0.00, 0.00, 10:47:11.257
70, 4590.60, -187500.02, -187500.02, -134674.22, -187500.02, -93733.96, -187500.02, -163935.33, 0.00, 0.00, 0.00, 10:47:11.261
71, 4527.68, -187500.02, -187500.02, -134734.56, -187500.02, -93800.81, -187500.02, -164008.42, 0.00, 0.00, 0.00, 10:47:11.264
72, 4496.01, -187500.02, -187500.02, -134719.17, -187500.02, -93789.33, -187500.02, -164007.06, 0.00, 0.00, 0.00, 10:47:11.269
73, 4572.12, -187500.02, -187500.02, -134698.45, -187500.02, -93769.19, -187500.02, -163994.55, 0.89, -0.26, 0.38, 10:47:11.273
74, 4568.85, -187500.02, -187500.02, -134711.59, -187500.02, -93783.70, -187500.02, -164009.98, 0.00, 0.00, 0.00, 10:47:11.276
75, 4449.52, -187500.02, -187500.02, -134706.16, -187500.02, -93780.88, -187500.02, -164005.97, 0.00, 0.00, 0.00, 10:47:11.280
76, 4430.72, -187500.02, -187500.02, -134684.33, -187500.02, -93760.18, -187500.02, -163993.22, 0.00, 0.00, 0.00, 10:47:11.285
77, 4523.12, -187500.02, -187500.02, -134677.28, -187500.02, -93755.73, -187500.02, -164002.61, 0.00, 0.00, 0.00, 10:47:11.289
78, 4454.32, -187500.02, -187500.02, -134647.06, -187500.02, -93728.70, -187500.02, -163988.53, 0.00, 0.00, 0.00, 10:47:11.293
79, 4387.38, -187500.02, -187500.02, -134635.44, -187500.02, -93721.22, -187500.02, -163987.50, 0.00, 0.00, 0.00, 10:47:11.296
80, 4510.63, -187500.02, -187500.02, -134715.45, -187500.02, -93806.49, -187500.02, -164067.20, 0.00, 0.00, 0.00, 10:47:11.300
81, 4644.00, -187500.02, -187500.02, -134741.70, -187500.02, -93835.28, -187500.02, -164094.80, 0.00, 0.00, 0.00, 10:47:11.304
82, 4676.14, -187500.02, -187500.02, -134787.98, -187500.02, -93884.72, -187500.02, -164154.52, 0.00, 0.00, 0.00, 10:47:11.307
83, 4534.10, -187500.02, -187500.02, -134806.83, -187500.02, -93909.20, -187500.02, -164187.33, 0.89, -0.26, 0.37, 10:47:11.313
84, 4483.04, -187500.02, -187500.02, -134819.91, -187500.02, -93924.04, -187500.02, -164214.17, 0.00, 0.00, 0.00, 10:47:11.317
85, 4480.54, -187500.02, -187500.02, -134764.86, -187500.02, -93870.88, -187500.02, -164167.41, 0.00, 0.00, 0.00, 10:47:11.321
86, 4520.75, -187500.02, -187500.02, -134725.61, -187500.02, -93834.09, -187500.02, -164130.94, 0.00, 0.00, 0.00, 10:47:11.324
87, 4499.38, -187500.02, -187500.02, -134757.52, -187500.02, -93868.74, -187500.02, -164164.95, 0.00, 0.00, 0.00, 10:47:11.328
88, 4448.60, -187500.02, -187500.02, -134781.19, -187500.02, -93894.55, -187500.02, -164196.61, 0.00, 0.00, 0.00, 10:47:11.332
89, 4504.75, -187500.02, -187500.02, -134785.47, -187500.02, -93902.83, -187500.02, -164214.89, 0.00, 0.00, 0.00, 10:47:11.336
90, 4512.66, -187500.02, -187500.02, -134745.66, -187500.02, -93867.96, -187500.02, -164186.36, 0.00, 0.00, 0.00, 10:47:11.341
91, 4513.44, -187500.02, -187500.02, -134777.59, -187500.02, -93903.07, -187500.02, -164225.80, 0.00, 0.00, 0.00, 10:47:11.345
92, 4430.50, -187500.02, -187500.02, -134801.25, -187500.02, -93929.72, -187500.02, -164258.19, 0.89, -0.24, 0.38, 10:47:11.349
93, 4466.62, -187500.02, -187500.02, -134783.39, -187500.02, -93913.22, -187500.02, -164254.66, 0.00, 0.00, 0.00, 10:47:11.352
94, 4572.12, -187500.02, -187500.02, -134788.92, -187500.02, -93918.79, -187500.02, -164271.59, 0.00, 0.00, 0.00, 10:47:11.356
95, 4590.02, -187500.02, -187500.02, -134824.80, -187500.02, -93956.47, -187500.02, -164311.27, 0.00, 0.00, 0.00, 10:47:11.359
96, 4555.42, -187500.02, -187500.02, -134891.03, -187500.02, -94027.73, -187500.02, -164377.06, 0.00, 0.00, 0.00, 10:47:11.364
97, 4528.06, -187500.02, -187500.02, -134873.39, -187500.02, -94011.14, -187500.02, -164369.38, 0.00, 0.00, 0.00, 10:47:11.369
98, 4603.19, -187500.02, -187500.02, -134873.75, -187500.02, -94014.36, -187500.02, -164386.86, 0.00, 0.00, 0.00, 10:47:11.373
99, 4543.28, -187500.02, -187500.02, -134877.33, -187500.02, -94017.83, -187500.02, -164404.77, 0.00, 0.00, 0.00, 10:47:11.377
100, 4437.47, -187500.02, -187500.02, -134879.45, -187500.02, -94019.05, -187500.02, -164416.66, 0.00, 0.00, 0.00, 10:47:11.380
101, 4467.38, -187500.02, -187500.02, -134878.16, -187500.02, -94022.63, -187500.02, -164418.95, 0.00, 0.00, 0.00, 10:47:11.384
102, 4618.38, -187500.02, -187500.02, -134913.92, -187500.02, -94061.55, -187500.02, -164455.69, 0.89, -0.24, 0.37, 10:47:11.388
103, 4544.29, -187500.02, -187500.02, -134900.73, -187500.02, -94050.35, -187500.02, -164452.38, 0.00, 0.00, 0.00, 10:47:11.392
104, 4431.30, -187500.02, -187500.02, -134898.70, -187500.02, -94050.73, -187500.02, -164466.13, 0.00, 0.00, 0.00, 10:47:11.396
105, 4416.66, -187500.02, -187500.02, -134911.95, -187500.02, -94066.22, -187500.02, -164490.91, 0.00, 0.00, 0.00, 10:47:11.401
106, 4546.30, -187500.02, -187500.02, -134907.45, -187500.02, -94065.08, -187500.02, -164492.34, 0.00, 0.00, 0.00, 10:47:11.404
107, 4603.10, -187500.02, -187500.02, -134912.91, -187500.02, -94074.48, -187500.02, -164501.03, 0.00, 0.00, 0.00, 10:47:11.407
108, 4576.27, -187500.02, -187500.02, -134955.42, -187500.02, -94120.84, -187500.02, -164548.83, 0.00, 0.00, 0.00, 10:47:11.412
109, 4494.33, -187500.02, -187500.02, -134970.42, -187500.02, -94140.38, -187500.02, -164575.52, 0.00, 0.00, 0.00, 10:47:11.416
110, 4582.26, -187500.02, -187500.02, -134987.39, -187500.02, -94155.89, -187500.02, -164604.34, 0.00, 0.00, 0.00, 10:47:11.420
111, 4577.55, -187500.02, -187500.02, -134983.05, -187500.02, -94154.44, -187500.02, -164612.48, 0.00, 0.00, 0.00, 10:47:11.424
112, 4523.32, -187500.02, -187500.02, -134998.75, -187500.02, -94174.67, -187500.02, -164637.17, 0.89, -0.25, 0.37, 10:47:11.429
113, 4507.65, -187500.02, -187500.02, -135041.25, -187500.02, -94224.76, -187500.02, -164681.72, 0.00, 0.00, 0.00, 10:47:11.432
114, 4550.50, -187500.02, -187500.02, -135026.28, -187500.02, -94214.48, -187500.02, -164671.53, 0.00, 0.00, 0.00, 10:47:11.436
115, 4561.01, -187500.02, -187500.02, -134999.55, -187500.02, -94188.33, -187500.02, -164657.16, 0.00, 0.00, 0.00, 10:47:11.440
116, 4463.22, -187500.02, -187500.02, -134985.44, -187500.02, -94177.41, -187500.02, -164659.89, 0.00, 0.00, 0.00, 10:47:11.444
117, 4364.11, -187500.02, -187500.02, -134970.77, -187500.02, -94166.04, -187500.02, -164659.08, 0.00, 0.00, 0.00, 10:47:11.448
118, 4536.67, -187500.02, -187500.02, -135014.97, -187500.02, -94212.31, -187500.02, -164706.27, 0.00, 0.00, 0.00, 10:47:11.452
119, 4683.61, -187500.02, -187500.02, -135054.73, -187500.02, -94254.11, -187500.02, -164744.28, 0.00, 0.00, 0.00, 10:47:11.457
120, 4652.25, -187500.02, -187500.02, -135100.73, -187500.02, -94306.30, -187500.02, -164796.20, 0.00, 0.00, 0.00, 10:47:11.460
121, 4497.24, -187500.02, -187500.02, -135100.95, -187500.02, -94309.63, -187500.02, -164808.97, 0.00, 0.00, 0.00, 10:47:11.464
122, 4495.00, -187500.02, -187500.02, -135094.55, -187500.02, -94305.60, -187500.02, -164815.98, 0.89, -0.26, 0.37, 10:47:11.468
123, 4553.14, -187500.02, -187500.02, -135067.16, -187500.02, -94280.21, -187500.02, -164801.69, 0.00, 0.00, 0.00, 10:47:11.473
124, 4528.33, -187500.02, -187500.02, -135052.56, -187500.02, -94269.24, -187500.02, -164792.59, 0.00, 0.00, 0.00, 10:47:11.476
125, 4470.86, -187500.02, -187500.02, -135079.66, -187500.02, -94301.94, -187500.02, -164821.00, 0.00, 0.00, 0.00, 10:47:11.480
126, 4495.16, -187500.02, -187500.02, -135116.20, -187500.02, -94342.82, -187500.02, -164862.13, 0.00, 0.00, 0.00, 10:47:11.485
127, 4550.39, -187500.02, -187500.02, -135096.59, -187500.02, -94325.72, -187500.02, -164854.66, 0.00, 0.00, 0.00, 10:47:11.488
128, 4505.64, -187500.02, -187500.02, -135078.05, -187500.02, -94309.31, -187500.02, -164848.27, 0.00, 0.00, 0.00, 10:47:11.492
129, 4457.85, -187500.02, -187500.02, -135087.25, -187500.02, -94322.99, -187500.02, -164865.48, 0.00, 0.00, 0.00, 10:47:11.496
130, 4518.94, -187500.02, -187500.02, -135133.70, -187500.02, -94375.16, -187500.02, -164913.42, 0.00, 0.00, 0.00, 10:47:11.500
131, 4707.08, -187500.02, -187500.02, -135193.42, -187500.02, -94438.58, -187500.02, -164977.13, 0.00, 0.00, 0.00, 10:47:11.504
132, 4693.22, -187500.02, -187500.02, -135221.30, -187500.02, -94469.38, -187500.02, -165019.06, 0.89, -0.26, 0.37, 10:47:11.508
133, 4523.17, -187500.02, -187500.02, -135202.88, -187500.02, -94453.88, -187500.02, -165017.38, 0.00, 0.00, 0.00, 10:47:11.513
134, 4455.95, -187500.02, -187500.02, -135200.42, -187500.02, -94453.33, -187500.02, -165030.28, 0.00, 0.00, 0.00, 10:47:11.516
135, 4542.46, -187500.02, -187500.02, -135205.78, -187500.02, -94462.54, -187500.02, -165045.63, 0.00, 0.00, 0.00, 10:47:11.520
136, 4612.01, -187500.02, -187500.02, -135207.06, -187500.02, -94469.33, -187500.02, -165049.28, 0.00, 0.00, 0.00, 10:47:11.524
137, 4547.24, -187500.02, -187500.02, -135218.86, -187500.02, -94487.44, -187500.02, -165063.06, 0.00, 0.00, 0.00, 10:47:11.528
138, 4489.28, -187500.02, -187500.02, -135235.69, -187500.02, -94508.60, -187500.02, -165086.09, 0.00, 0.00, 0.00, 10:47:11.534
139, 4514.58, -187500.02, -187500.02, -135219.83, -187500.02, -94494.48, -187500.02, -165082.77, 0.00, 0.00, 0.00, 10:47:11.536
140, 4553.74, -187500.02, -187500.02, -135188.16, -187500.02, -94463.63, -187500.02, -165066.05, 0.00, 0.00, 0.00, 10:47:11.543
141, 4568.54, -187500.02, -187500.02, -135226.27, -187500.02, -94504.05, -187500.02, -165114.88, 0.89, -0.27, 0.38, 10:47:11.543
142, 4564.16, -187500.02, -187500.02, -135291.73, -187500.02, -94573.71, -187500.02, -165180.61, 0.00, 0.00, 0.00, 10:47:11.547
143, 4572.56, -187500.02, -187500.02, -135293.00, -187500.02, -94577.88, -187500.02, -165186.09, 0.00, 0.00, 0.00, 10:47:11.552
144, 4645.59, -187500.02, -187500.02, -135298.28, -187500.02, -94588.84, -187500.02, -165207.03, 0.00, 0.00, 0.00, 10:47:11.557
145, 4544.09, -187500.02, -187500.02, -135287.69, -187500.02, -94580.11, -187500.02, -165210.59, 0.00, 0.00, 0.00, 10:47:11.560
146, 4445.85, -187500.02, -187500.02, -135285.05, -187500.02, -94579.66, -187500.02, -165218.13, 0.00, 0.00, 0.00, 10:47:11.564
147, 4484.32, -187500.02, -187500.02, -135297.05, -187500.02, -94597.20, -187500.02, -165229.92, 0.00, 0.00, 0.00, 10:47:11.567
148, 4555.24, -187500.02, -187500.02, -135260.44, -187500.02, -94565.47, -187500.02, -165191.98, 0.00, 0.00, 0.00, 10:47:11.571
149, 4587.00, -187500.02, -187500.02, -135289.53, -187500.02, -94594.84, -187500.02, -165224.89, 0.00, 0.00, 0.00, 10:47:11.575
150, 4484.41, -187500.02, -187500.02, -135327.38, -187500.02, -94632.66, -187500.02, -165274.05, 0.00, 0.00, 0.00, 10:47:11.581
151, 4414.94, -187500.02, -187500.02, -135291.50, -187500.02, -94597.09, -187500.02, -165251.63, 0.89, -0.27, 0.38, 10:47:11.584
152, 4586.29, -187500.02, -187500.02, -135319.72, -187500.02, -94629.19, -187500.02, -165294.88, 0.00, 0.00, 0.00, 10:47:11.588
153, 4630.92, -187500.02, -187500.02, -135353.98, -187500.02, -94669.13, -187500.02, -165338.95, 0.00, 0.00, 0.00, 10:47:11.592
154, 4586.11, -187500.02, -187500.02, -135399.13, -187500.02, -94720.74, -187500.02, -165387.86, 0.00, 0.00, 0.00, 10:47:11.595
155, 4557.61, -187500.02, -187500.02, -135413.48, -187500.02, -94735.09, -187500.02, -165401.00, 0.00, 0.00, 0.00, 10:47:11.600
156, 4670.60, -187500.02, -187500.02, -135445.75, -187500.02, -94768.80, -187500.02, -165441.77, 0.00, 0.00, 0.00, 10:47:11.603
157, 4628.51, -187500.02, -187500.02, -135441.33, -187500.02, -94769.29, -187500.02, -165450.11, 0.00, 0.00, 0.00, 10:47:11.608
158, 4415.48, -187500.02, -187500.02, -135366.52, -187500.02, -94698.26, -187500.02, -165388.38, 0.00, 0.00, 0.00, 10:47:11.613
159, 4354.75, -187500.02, -187500.02, -135319.16, -187500.02, -94650.31, -187500.02, -165345.97, 0.00, 0.00, 0.00, 10:47:11.616
160, 4571.13, -187500.02, -187500.02, -135376.59, -187500.02, -94706.73, -187500.02, -165402.30, 0.00, 0.00, 0.00, 10:47:11.620
161, 4648.98, -187500.02, -187500.02, -135424.50, -187500.02, -94755.34, -187500.02, -165452.53, 0.89, -0.24, 0.37, 10:47:11.623
162, 4507.88, -187500.02, -187500.02, -135412.97, -187500.02, -94746.56, -187500.02, -165453.81, 0.00, 0.00, 0.00, 10:47:11.627
163, 4397.95, -187500.02, -187500.02, -135392.80, -187500.02, -94726.31, -187500.02, -165447.55, 0.00, 0.00, 0.00, 10:47:11.632
164, 4492.12, -187500.02, -187500.02, -135396.52, -187500.02, -94730.16, -187500.02, -165459.70, 0.00, 0.00, 0.00, 10:47:11.636
165, 4597.11, -187500.02, -187500.02, -135394.23, -187500.02, -94730.63, -187500.02, -165458.42, 0.00, 0.00, 0.00, 10:47:11.640
166, 4619.44, -187500.02, -187500.02, -135429.30, -187500.02, -94766.38, -187500.02, -165495.44, 0.00, 0.00, 0.00, 10:47:11.644
167, 4585.26, -187500.02, -187500.02, -135487.47, -187500.02, -94829.89, -187500.02, -165559.72, 0.00, 0.00, 0.00, 10:47:11.647
168, 4574.89, -187500.02, -187500.02, -135491.67, -187500.02, -94839.92, -187500.02, -165576.06, 0.00, 0.00, 0.00, 10:47:11.651
169, 4594.69, -187500.02, -187500.02, -135450.09, -187500.02, -94799.29, -187500.02, -165548.34, 0.00, 0.00, 0.00, 10:47:11.656
170, 4567.20, -187500.02, -187500.02, -135469.30, -187500.02, -94821.59, -187500.02, -165581.25, 0.00, 0.00, 0.00, 10:47:11.659
171, 4426.79, -187500.02, -187500.02, -135439.77, -187500.02, -94799.65, -187500.02, -165560.58, 0.89, -0.25, 0.36, 10:47:11.663
172, 4538.14, -187500.02, -187500.02, -135481.42, -187500.02, -94846.59, -187500.02, -165601.39, 0.00, 0.00, 0.00, 10:47:11.668
173, 4666.62, -187500.02, -187500.02, -135508.97, -187500.02, -94877.59, -187500.02, -165629.14, 0.00, 0.00, 0.00, 10:47:11.672
174, 4660.36, -187500.02, -187500.02, -135546.31, -187500.02, -94917.26, -187500.02, -165676.42, 0.00, 0.00, 0.00, 10:47:11.676
175, 4483.80, -187500.02, -187500.02, -135530.78, -187500.02, -94902.04, -187500.02, -165675.34, 0.00, 0.00, 0.00, 10:47:11.679
176, 4434.45, -187500.02, -187500.02, -135503.56, -187500.02, -94876.91, -187500.02, -165663.84, 0.00, 0.00, 0.00, 10:47:11.685
177, 4514.36, -187500.02, -187500.02, -135480.16, -187500.02, -94856.27, -187500.02, -165647.86, 0.00, 0.00, 0.00, 10:47:11.688
178, 4621.94, -187500.02, -187500.02, -135500.52, -187500.02, -94880.24, -187500.02, -165670.77, 0.00, 0.00, 0.00, 10:47:11.691
179, 4629.18, -187500.02, -187500.02, -135581.14, -187500.02, -94964.34, -187500.02, -165754.88, 0.00, 0.00, 0.00, 10:47:11.696
180, 4550.01, -187500.02, -187500.02, -135585.52, -187500.02, -94972.83, -187500.02, -165770.17, 0.90, -0.27, 0.35, 10:47:11.700
181, 4621.63, -187500.02, -187500.02, -135580.06, -187500.02, -94969.50, -187500.02, -165780.63, 0.00, 0.00, 0.00, 10:47:11.704
182, 4587.72, -187500.02, -187500.02, -135555.14, -187500.02, -94945.24, -187500.02, -165768.20, 0.00, 0.00, 0.00, 10:47:11.707
183, 4483.56, -187500.02, -187500.02, -135522.72, -187500.02, -94917.71, -187500.02, -165744.02, 0.00, 0.00, 0.00, 10:47:11.711
184, 4485.68, -187500.02, -187500.02, -135554.36, -187500.02, -94951.52, -187500.02, -165777.42, 0.00, 0.00, 0.00, 10:47:11.715
185, 4592.95, -187500.02, -187500.02, -135589.13, -187500.02, -94990.75, -187500.02, -165815.05, 0.00, 0.00, 0.00, 10:47:11.720
186, 4636.65, -187500.02, -187500.02, -135600.77, -187500.02, -95005.62, -187500.02, -165838.72, 0.00, 0.00, 0.00, 10:47:11.724
187, 4516.57, -187500.02, -187500.02, -135604.59, -187500.02, -95012.55, -187500.02, -165856.84, 0.00, 0.00, 0.00, 10:47:11.728
188, 4429.06, -187500.02, -187500.02, -135597.92, -187500.02, -95007.59, -187500.02, -165863.78, 0.00, 0.00, 0.00, 10:47:11.732
189, 4519.61, -187500.02, -187500.02, -135593.92, -187500.02, -95006.51, -187500.02, -165865.05, 0.00, 0.00, 0.00, 10:47:11.735
190, 4678.53, -187500.02, -187500.02, -135635.05, -187500.02, -95052.51, -187500.02, -165906.20, 0.89, -0.25, 0.36, 10:47:11.739
191, 4631.57, -187500.02, -187500.02, -135642.39, -187500.02, -95064.96, -187500.02, -165914.83, 0.00, 0.00, 0.00, 10:47:11.744
192, 4606.09, -187500.02, -187500.02, -135707.14, -187500.02, -95132.59, -187500.02, -165991.80, 0.00, 0.00, 0.00, 10:47:11.747
193, 4625.11, -187500.02, -187500.02, -135738.92, -187500.02, -95168.47, -187500.02, -166036.47, 0.00, 0.00, 0.00, 10:47:11.752
194, 4664.79, -187500.02, -187500.02, -135730.20, -187500.02, -95163.06, -187500.02, -166042.70, 0.00, 0.00, 0.00, 10:47:11.756
195, 4575.16, -187500.02, -187500.02, -135708.80, -187500.02, -95147.17, -187500.02, -166036.39, 0.00, 0.00, 0.00, 10:47:11.759
196, 4485.70, -187500.02, -187500.02, -135708.81, -187500.02, -95153.52, -187500.02, -166045.00, 0.00, 0.00, 0.00, 10:47:11.763
197, 4528.49, -187500.02, -187500.02, -135716.39, -187500.02, -95164.49, -187500.02, -166054.28, 0.00, 0.00, 0.00, 10:47:11.767
198, 4655.44, -187500.02, -187500.02, -135732.97, -187500.02, -95183.49, -187500.02, -166073.20, 0.00, 0.00, 0.00, 10:47:11.772
199, 4613.42, -187500.02, -187500.02, -135737.89, -187500.02, -95194.11, -187500.02, -166091.00, 0.00, 0.00, 0.00, 10:47:11.776
200, 4462.82, -187500.02, -187500.02, -135723.67, -187500.02, -95182.69, -187500.02, -166090.06, 0.89, -0.26, 0.36, 10:47:11.781
201, 4439.35, -187500.02, -187500.02, -135717.64, -187500.02, -95176.48, -187500.02, -166096.56, 0.00, 0.00, 0.00, 10:47:11.783
202, 4567.11, -187500.02, -187500.02, -135723.61, -187500.02, -95187.07, -187500.02, -166110.05, 0.00, 0.00, 0.00, 10:47:11.788
203, 4589.66, -187500.02, -187500.02, -135723.34, -187500.02, -95190.38, -187500.02, -166109.80, 0.00, 0.00, 0.00, 10:47:11.791
204, 4540.67, -187500.02, -187500.02, -135740.55, -187500.02, -95208.48, -187500.02, -166132.38, 0.00, 0.00, 0.00, 10:47:11.795
205, 4496.14, -187500.02, -187500.02, -135750.50, -187500.02, -95222.43, -187500.02, -166155.38, 0.00, 0.00, 0.00, 10:47:11.800
206, 4623.59, -187500.02, -187500.02, -135777.48, -187500.02, -95251.51, -187500.02, -166197.22, 0.00, 0.00, 0.00, 10:47:11.804
207, 4642.93, -187500.02, -187500.02, -135806.44, -187500.02, -95283.34, -187500.02, -166239.84, 0.00, 0.00, 0.00, 10:47:11.808
208, 4533.96, -187500.02, -187500.02, -135802.84, -187500.02, -95281.51, -187500.02, -166248.84, 0.00, 0.00, 0.00, 10:47:11.811
209, 4517.31, -187500.02, -187500.02, -135837.92, -187500.02, -95319.77, -187500.02, -166285.94, 0.00, 0.00, 0.00, 10:47:11.815
210, 4563.67, -187500.02, -187500.02, -135814.05, -187500.02, -95298.73, -187500.02, -166261.70, 0.89, -0.26, 0.38, 10:47:11.819
211, 4663.65, -187500.02, -187500.02, -135839.34, -187500.02, -95326.37, -187500.02, -166292.45, 0.00, 0.00, 0.00, 10:47:11.823
212, 4537.00, -187500.02, -187500.02, -135835.17, -187500.02, -95324.84, -187500.02, -166302.09, 0.00, 0.00, 0.00, 10:47:11.829
213, 4432.86, -187500.02, -187500.02, -135828.42, -187500.02, -95320.48, -187500.02, -166313.72, 0.00, 0.00, 0.00, 10:47:11.833
214, 4488.30, -187500.02, -187500.02, -135836.16, -187500.02, -95331.33, -187500.02, -166336.92, 0.00, 0.00, 0.00, 10:47:11.836
215, 4560.74, -187500.02, -187500.02, -135836.06, -187500.02, -95335.88, -187500.02, -166348.09, 0.00, 0.00, 0.00, 10:47:11.839
216, 4480.27, -187500.02, -187500.02, -135802.13, -187500.02, -95306.02, -187500.02, -166317.48, 0.00, 0.00, 0.00, 10:47:11.842
217, 4478.46, -187500.02, -187500.02, -135826.78, -187500.02, -95334.16, -187500.02, -166345.95, 0.00, 0.00, 0.00, 10:47:11.847
218, 4565.05, -187500.02, -187500.02, -135880.00, -187500.02, -95392.68, -187500.02, -166405.63, 0.00, 0.00, 0.00, 10:47:11.852
219, 4630.16, -187500.02, -187500.02, -135879.92, -187500.02, -95394.25, -187500.02, -166417.45, 0.00, 0.00, 0.00, 10:47:11.856
220, 4589.95, -187500.02, -187500.02, -135895.36, -187500.02, -95410.41, -187500.02, -166447.22, 0.89, -0.27, 0.37, 10:47:11.859
221, 4468.14, -187500.02, -187500.02, -135895.05, -187500.02, -95413.52, -187500.02, -166457.61, 0.00, 0.00, 0.00, 10:47:11.864
222, 4538.77, -187500.02, -187500.02, -135936.17, -187500.02, -95458.76, -187500.02, -166501.58, 0.00, 0.00, 0.00, 10:47:11.868
223, 4633.85, -187500.02, -187500.02, -135944.13, -187500.02, -95469.41, -187500.02, -166511.34, 0.00, 0.00, 0.00, 10:47:11.870
224, 4632.22, -187500.02, -187500.02, -135967.88, -187500.02, -95495.92, -187500.02, -166546.00, 0.00, 0.00, 0.00, 10:47:11.875
225, 4500.55, -187500.02, -187500.02, -135977.91, -187500.02, -95511.10, -187500.02, -166570.92, 0.00, 0.00, 0.00, 10:47:11.880
226, 4429.74, -187500.02, -187500.02, -135958.02, -187500.02, -95494.34, -187500.02, -166567.03, 0.00, 0.00, 0.00, 10:47:11.883
227, 4544.02, -187500.02, -187500.02, -135956.16, -187500.02, -95493.11, -187500.02, -166574.00, 0.00, 0.00, 0.00, 10:47:11.887
228, 4585.50, -187500.02, -187500.02, -135965.02, -187500.02, -95506.09, -187500.02, -166584.73, 0.00, 0.00, 0.00, 10:47:11.891
229, 4501.73, -187500.02, -187500.02, -135970.81, -187500.02, -95517.07, -187500.02, -166594.03, 0.88, -0.27, 0.37, 10:47:11.894
230, 4419.48, -187500.02, -187500.02, -135958.59, -187500.02, -95510.95, -187500.02, -166592.53, 0.00, 0.00, 0.00, 10:47:11.899
231, 4551.84, -187500.02, -187500.02, -135969.03, -187500.02, -95525.18, -187500.02, -166622.14, 0.00, 0.00, 0.00, 10:47:11.904
232, 4600.70, -187500.02, -187500.02, -135974.55, -187500.02, -95535.48, -187500.02, -166642.11, 0.00, 0.00, 0.00, 10:47:11.907
233, 4593.24, -187500.02, -187500.02, -136019.23, -187500.02, -95583.86, -187500.02, -166692.38, 0.00, 0.00, 0.00, 10:47:11.912
234, 4575.51, -187500.02, -187500.02, -136084.92, -187500.02, -95653.86, -187500.02, -166759.92, 0.00, 0.00, 0.00, 10:47:11.916
235, 4596.32, -187500.02, -187500.02, -136084.30, -187500.02, -95658.69, -187500.02, -166771.02, 0.00, 0.00, 0.00, 10:47:11.918
236, 4632.20, -187500.02, -187500.02, -136079.47, -187500.02, -95658.96, -187500.02, -166781.92, 0.00, 0.00, 0.00, 10:47:11.923
237, 4491.49, -187500.02, -187500.02, -136042.23, -187500.02, -95627.69, -187500.02, -166758.14, 0.00, 0.00, 0.00, 10:47:11.926
238, 4456.63, -187500.02, -187500.02, -136053.66, -187500.02, -95642.77, -187500.02, -166775.66, 0.00, 0.00, 0.00, 10:47:11.930
239, 4530.45, -187500.02, -187500.02, -136068.94, -187500.02, -95661.93, -187500.02, -166793.78, 0.89, -0.26, 0.37, 10:47:11.936
240, 4622.63, -187500.02, -187500.02, -136083.31, -187500.02, -95679.19, -187500.02, -166818.11, 0.00, 0.00, 0.00, 10:47:11.940
241, 4532.87, -187500.02, -187500.02, -136078.25, -187500.02, -95676.15, -187500.02, -166830.44, 0.00, 0.00, 0.00, 10:47:11.944
242, 4392.77, -187500.02, -187500.02, -136055.25, -187500.02, -95659.41, -187500.02, -166827.25, 0.00, 0.00, 0.00, 10:47:11.946
243, 4431.08, -187500.02, -187500.02, -136046.84, -187500.02, -95656.57, -187500.02, -166831.69, 0.00, 0.00, 0.00, 10:47:11.951
244, 4637.56, -187500.02, -187500.02, -136099.77, -187500.02, -95716.52, -187500.02, -166888.52, 0.00, 0.00, 0.00, 10:47:11.954
245, 4676.30, -187500.02, -187500.02, -136143.02, -187500.02, -95764.50, -187500.02, -166935.58, 0.00, 0.00, 0.00, 10:47:11.959
246, 4563.80, -187500.02, -187500.02, -136190.52, -187500.02, -95819.73, -187500.02, -166994.14, 0.00, 0.00, 0.00, 10:47:11.964
247, 4464.74, -187500.02, -187500.02, -136143.16, -187500.02, -95777.87, -187500.02, -166962.47, 0.00, 0.00, 0.00, 10:47:11.967
248, 4558.55, -187500.02, -187500.02, -136134.81, -187500.02, -95771.21, -187500.02, -166969.56, 0.00, 0.00, 0.00, 10:47:11.972
249, 4603.21, -187500.02, -187500.02, -136157.72, -187500.02, -95797.49, -187500.02, -167000.97, 0.89, -0.26, 0.37, 10:47:11.975
250, 4506.69, -187500.02, -187500.02, -136173.14, -187500.02, -95816.43, -187500.02, -167018.75, 0.00, 0.00, 0.00, 10:47:11.978
251, 4485.86, -187500.02, -187500.02, -136165.86, -187500.02, -95813.12, -187500.02, -167016.72, 0.00, 0.00, 0.00, 10:47:11.983
252, 4611.57, -187500.02, -187500.02, -136210.88, -187500.02, -95861.95, -187500.02, -167073.73, 0.00, 0.00, 0.00, 10:47:11.987
253, 4527.10, -187500.02, -187500.02, -136168.25, -187500.02, -95822.71, -187500.02, -167046.52, 0.00, 0.00, 0.00, 10:47:11.992
254, 4441.05, -187500.02, -187500.02, -136146.75, -187500.02, -95806.03, -187500.02, -167045.69, 0.00, 0.00, 0.00, 10:47:11.995
255, 4470.77, -187500.02, -187500.02, -136180.84, -187500.02, -95843.07, -187500.02, -167095.09, 0.00, 0.00, 0.00, 10:47:11.999
0, 4627.35, -187500.02, -187500.02, -136224.25, -187500.02, -95890.70, -187500.02, -167141.28, 0.00, 0.00, 0.00, 10:47:12.002
1, 4692.44, -187500.02, -187500.02, -136254.27, -187500.02, -95924.34, -187500.02, -167174.72, 0.00, 0.00, 0.00, 10:47:12.007
2, 4582.24, -187500.02, -187500.02, -136275.55, -187500.02, -95946.00, -187500.02, -167208.95, 0.00, 0.00, 0.00, 10:47:12.011
3, 4455.53, -187500.02, -187500.02, -136264.03, -187500.02, -95936.79, -187500.02, -167213.81, 0.89, -0.27, 0.37, 10:47:12.014
4, 4479.65, -187500.02, -187500.02, -136234.14, -187500.02, -95910.48, -187500.02, -167198.47, 0.00, 0.00, 0.00, 10:47:12.020
5, 4643.78, -187500.02, -187500.02, -136288.58, -187500.02, -95968.15, -187500.02, -167258.13, 0.00, 0.00, 0.00, 10:47:12.024
6, 4580.86, -187500.02, -187500.02, -136312.41, -187500.02, -95997.68, -187500.02, -167284.73, 0.00, 0.00, 0.00, 10:47:12.026
7, 4478.84, -187500.02, -187500.02, -136321.67, -187500.02, -96012.30, -187500.02, -167307.00, 0.00, 0.00, 0.00, 10:47:12.031
8, 4475.20, -187500.02, -187500.02, -136311.23, -187500.02, -96007.98, -187500.02, -167313.22, 0.00, 0.00, 0.00, 10:47:12.035
9, 4493.30, -187500.02, -187500.02, -136252.23, -187500.02, -95955.45, -187500.02, -167269.09, 0.00, 0.00, 0.00, 10:47:12.038
10, 4544.82, -187500.02, -187500.02, -136292.17, -187500.02, -96001.74, -187500.02, -167315.03, 0.00, 0.00, 0.00, 10:47:12.043
11, 4467.67, -187500.02, -187500.02, -136314.20, -187500.02, -96027.77, -187500.02, -167339.45, 0.00, 0.00, 0.00, 10:47:12.048
12, 4512.88, -187500.02, -187500.02, -136332.36, -187500.02, -96047.09, -187500.02, -167370.91, 0.00, 0.00, 0.00, 10:47:12.051
13, 4591.12, -187500.02, -187500.02, -136331.91, -187500.02, -96051.90, -187500.02, -167389.09, 0.88, -0.26, 0.36, 10:47:12.055
14, 4609.98, -187500.02, -187500.02, -136370.80, -187500.02, -96095.31, -187500.02, -167443.39, 0.00, 0.00, 0.00, 10:47:12.059
15, 4440.35, -187500.02, -187500.02, -136356.34, -187500.02, -96086.62, -187500.02, -167439.08, 0.00, 0.00, 0.00, 10:47:12.062
16, 4483.16, -187500.02, -187500.02, -136365.28, -187500.02, -96098.57, -187500.02, -167453.23, 0.00, 0.00, 0.00, 10:47:12.067
17, 4593.77, -187500.02, -187500.02, -136374.06, -187500.02, -96110.84, -187500.02, -167462.27, 0.00, 0.00, 0.00, 10:47:12.070
18, 4628.96, -187500.02, -187500.02, -136410.59, -187500.02, -96151.48, -187500.02, -167506.42, 0.00, 0.00, 0.00, 10:47:12.075
19, 4458.35, -187500.02, -187500.02, -136409.88, -187500.02, -96155.10, -187500.02, -167520.64, 0.00, 0.00, 0.00, 10:47:12.080
20, 4368.45, -187500.02, -187500.02, -136371.47, -187500.02, -96121.86, -187500.02, -167501.59, 0.00, 0.00, 0.00, 10:47:12.083
21, 4441.16, -187500.02, -187500.02, -136348.52, -187500.02, -96102.64, -187500.02, -167492.66, 0.00, 0.00, 0.00, 10:47:12.086
22, 4529.00, -187500.02, -187500.02, -136359.42, -187500.02, -96115.90, -187500.02, -167507.97, 0.88, -0.27, 0.36, 10:47:12.091
23, 4487.40, -187500.02, -187500.02, -136400.59, -187500.02, -96159.62, -187500.02, -167551.33, 0.00, 0.00, 0.00, 10:47:12.095
24, 4428.69, -187500.02, -187500.02, -136421.16, -187500.02, -96184.60, -187500.02, -167580.09, 0.00, 0.00, 0.00, 10:47:12.101
25, 4524.89, -187500.02, -187500.02, -136438.44, -187500.02, -96206.73, -187500.02, -167612.80, 0.00, 0.00, 0.00, 10:47:12.103
26, 4567.51, -187500.02, -187500.02, -136438.59, -187500.02, -96212.01, -187500.02, -167630.45, 0.00, 0.00, 0.00, 10:47:12.108
27, 4523.01, -187500.02, -187500.02, -136457.11, -187500.02, -96234.88, -187500.02, -167667.30, 0.00, 0.00, 0.00, 10:47:12.110
28, 4478.48, -187500.02, -187500.02, -136494.56, -187500.02, -96277.81, -187500.02, -167711.34, 0.00, 0.00, 0.00, 10:47:12.115
29, 4540.76, -187500.02, -187500.02, -136493.20, -187500.02, -96277.84, -187500.02, -167713.20, 0.00, 0.00, 0.00, 10:47:12.119
30, 4618.50, -187500.02, -187500.02, -136513.08, -187500.02, -96301.59, -187500.02, -167742.39, 0.00, 0.00, 0.00, 10:47:12.122
31, 4528.53, -187500.02, -187500.02, -136520.42, -187500.02, -96313.26, -187500.02, -167767.41, 0.00, 0.00, 0.00, 10:47:12.127
32, 4404.95, -187500.02, -187500.02, -136522.42, -187500.02, -96320.28, -187500.02, -167789.16, 0.88, -0.28, 0.38, 10:47:12.131
33, 4407.63, -187500.02, -187500.02, -136497.27, -187500.02, -96298.84, -187500.02, -167779.59, 0.00, 0.00, 0.00, 10:47:12.136
34, 4538.70, -187500.02, -187500.02, -136501.25, -187500.02, -96306.11, -187500.02, -167788.11, 0.00, 0.00, 0.00, 10:47:12.139
35, 4585.55, -187500.02, -187500.02, -136567.02, -187500.02, -96379.65, -187500.02, -167855.25, 0.00, 0.00, 0.00, 10:47:12.143
36, 4463.35, -187500.02, -187500.02, -136585.38, -187500.02, -96402.94, -187500.02, -167879.28, 0.00, 0.00, 0.00, 10:47:12.147
37, 4412.64, -187500.02, -187500.02, -136559.63, -187500.02, -96379.18, -187500.02, -167868.55, 0.00, 0.00, 0.00, 10:47:12.150
38, 4476.16, -187500.02, -187500.02, -136520.47, -187500.02, -96342.07, -187500.02, -167848.59, 0.00, 0.00, 0.00, 10:47:12.155
39, 4526.70, -187500.02, -187500.02, -136551.77, -187500.02, -96379.34, -187500.02, -167899.23, 0.00, 0.00, 0.00, 10:47:12.161
40, 4454.46, -187500.02, -187500.02, -136569.69, -187500.02, -96402.71, -187500.02, -167926.17, 0.00, 0.00, 0.00, 10:47:12.163
41, 4480.38, -187500.02, -187500.02, -136601.39, -187500.02, -96439.19, -187500.02, -167957.28, 0.00, 0.00, 0.00, 10:47:12.168
42, 4554.10, -187500.02, -187500.02, -136595.73, -187500.02, -96437.20, -187500.02, -167953.22, 0.88, -0.27, 0.39, 10:47:12.171
43, 4508.93, -187500.02, -187500.02, -136576.63, -187500.02, -96418.96, -187500.02, -167947.89, 0.00, 0.00, 0.00, 10:47:12.176
