%OpenBCI Raw EEG Data
%
%Sample Rate = 250.0 Hz
%First Column = SampleIndex
%Last Column = Timestamp 
%Other Columns = EEG data in microvolts followed by Accel Data (in G) interleaved with Aux Data
0, 7314.97, 0.00, 0.00, -187050.75, 0.00, -137788.59, 0.00, 0.00, -0.04, -0.27, 0.42, 10:50:45.220
1, 6390.79, 0.00, 0.00, -187271.48, 0.00, -138004.69, 0.00, 0.00, 0.00, 0.00, 0.00, 10:50:45.223
2, 2968.07, 0.00, 0.00, -187500.02, 0.00, -138823.34, 0.00, 0.00, 0.00, 0.00, 0.00, 10:50:45.227
3, 3076.29, 0.00, 0.00, -187500.02, 0.00, -138800.64, 0.00, 0.00, 0.00, 0.00, 0.00, 10:50:45.231
4, 6990.26, 0.00, 0.00, -187137.05, 0.00, -137852.30, 0.00, 0.00, 0.00, 0.00, 0.00, 10:50:45.236
5, 6700.58, 0.00, 0.00, -187224.48, 0.00, -137933.66, 0.00, 0.00, 0.00, 0.00, 0.00, 10:50:45.239
6, 3594.36, 0.00, 0.00, -187500.02, 0.00, -138671.73, 0.00, 0.00, 0.00, 0.00, 0.00, 10:50:45.242
7, 2506.61, 0.00, 0.00, -187500.02, 0.00, -138917.88, 0.00, 0.00, -0.06, -0.56, 0.83, 10:50:45.247
8, 6502.10, 0.00, 0.00, -187258.44, 0.00, -137943.86, 0.00, 0.00, 0.00, 0.00, 0.00, 10:50:45.252
9, 6931.86, 0.00, 0.00, -187173.53, 0.00, -137853.17, 0.00, 0.00, 0.00, 0.00, 0.00, 10:50:45.256
10, 4257.00, 0.00, 0.00, -187500.02, 0.00, -138483.63, 0.00, 0.00, 0.00, 0.00, 0.00, 10:50:45.259
11, 2209.72, 0.00, 0.00, -187500.02, 0.00, -138975.78, 0.00, 0.00, 0.00, 0.00, 0.00, 10:50:45.262
12, 5927.03, 0.00, 0.00, -187428.16, 0.00, -138084.61, 0.00, 0.00, 0.00, 0.00, 0.00, 10:50:45.266
13, 7093.30, 0.00, 0.00, -187123.48, 0.00, -137774.38, 0.00, 0.00, 0.00, 0.00, 0.00, 10:50:45.270
14, 4893.89, 0.00, 0.00, -187500.02, 0.00, -138281.56, 0.00, 0.00, 0.00, 0.00, 0.00, 10:50:45.275
15, 2191.63, 0.00, 0.00, -187500.02, 0.00, -138937.19, 0.00, 0.00, 0.00, 0.00, 0.00, 10:50:45.278
16, 5236.41, 0.00, 0.00, -187500.02, 0.00, -138193.59, 0.00, 0.00, -0.08, -0.56, 0.83, 10:50:45.282
17, 7182.26, 0.00, 0.00, -187102.33, 0.00, -137723.13, 0.00, 0.00, 0.00, 0.00, 0.00, 10:50:45.286
18, 5476.42, 0.00, 0.00, -187500.02, 0.00, -138148.91, 0.00, 0.00, 0.00, 0.00, 0.00, 10:50:45.289
19, 2383.30, 0.00, 0.00, -187500.02, 0.00, -138885.83, 0.00, 0.00, 0.00, 0.00, 0.00, 10:50:45.293
20, 4490.55, 0.00, 0.00, -187500.02, 0.00, -138366.81, 0.00, 0.00, 0.00, 0.00, 0.00, 10:50:45.298
21, 7180.56, 0.00, 0.00, -187136.55, 0.00, -137734.55, 0.00, 0.00, 0.00, 0.00, 0.00, 10:50:45.303
22, 5944.29, 0.00, 0.00, -187440.63, 0.00, -138035.63, 0.00, 0.00, 0.00, 0.00, 0.00, 10:50:45.307
23, 2799.42, 0.00, 0.00, -187500.02, 0.00, -138808.78, 0.00, 0.00, 0.00, 0.00, 0.00, 10:50:45.310
24, 3814.01, 0.00, 0.00, -187500.02, 0.00, -138538.25, 0.00, 0.00, 0.00, 0.00, 0.00, 10:50:45.314
25, 7091.45, 0.00, 0.00, -187167.72, 0.00, -137743.16, 0.00, 0.00, 0.00, 0.00, 0.00, 10:50:45.318
26, 6379.88, 0.00, 0.00, -187348.22, 0.00, -137919.80, 0.00, 0.00, -0.09, -0.56, 0.84, 10:50:45.322
27, 3361.12, 0.00, 0.00, -187500.02, 0.00, -138674.28, 0.00, 0.00, 0.00, 0.00, 0.00, 10:50:45.326
28, 3227.52, 0.00, 0.00, -187500.02, 0.00, -138704.22, 0.00, 0.00, 0.00, 0.00, 0.00, 10:50:45.330
29, 6864.00, 0.00, 0.00, -187246.80, 0.00, -137811.06, 0.00, 0.00, 0.00, 0.00, 0.00, 10:50:45.335
30, 6745.89, 0.00, 0.00, -187291.77, 0.00, -137852.28, 0.00, 0.00, 0.00, 0.00, 0.00, 10:50:45.339
31, 3981.25, 0.00, 0.00, -187500.02, 0.00, -138545.09, 0.00, 0.00, 0.00, 0.00, 0.00, 10:50:45.342
32, 2758.09, 0.00, 0.00, -187500.02, 0.00, -138852.39, 0.00, 0.00, 0.00, 0.00, 0.00, 10:50:45.346
33, 6450.96, 0.00, 0.00, -187385.28, 0.00, -137931.92, 0.00, 0.00, 0.00, 0.00, 0.00, 10:50:45.350
34, 7009.08, 0.00, 0.00, -187258.19, 0.00, -137799.70, 0.00, 0.00, 0.00, 0.00, 0.00, 10:50:45.354
35, 4601.02, 0.00, 0.00, -187500.02, 0.00, -138394.73, 0.00, 0.00, 0.00, 0.00, 0.00, 10:50:45.359
36, 2483.17, 0.00, 0.00, -187500.02, 0.00, -138915.86, 0.00, 0.00, -0.08, -0.55, 0.84, 10:50:45.363
37, 5837.63, 0.00, 0.00, -187500.02, 0.00, -138066.98, 0.00, 0.00, 0.00, 0.00, 0.00, 10:50:45.367
38, 7141.07, 0.00, 0.00, -187200.64, 0.00, -137725.20, 0.00, 0.00, 0.00, 0.00, 0.00, 10:50:45.370
39, 5140.28, 0.00, 0.00, -187500.02, 0.00, -138209.48, 0.00, 0.00, 0.00, 0.00, 0.00, 10:50:45.374
40, 2402.03, 0.00, 0.00, -187500.02, 0.00, -138871.36, 0.00, 0.00, 0.00, 0.00, 0.00, 10:50:45.378
41, 5127.80, 0.00, 0.00, -187500.02, 0.00, -138206.11, 0.00, 0.00, 0.00, 0.00, 0.00, 10:50:45.381
42, 7233.23, 0.00, 0.00, -187207.16, 0.00, -137711.11, 0.00, 0.00, 0.00, 0.00, 0.00, 10:50:45.387
43, 5660.78, 0.00, 0.00, -187500.02, 0.00, -138103.80, 0.00, 0.00, 0.00, 0.00, 0.00, 10:50:45.391
44, 2600.25, 0.00, 0.00, -187500.02, 0.00, -138853.30, 0.00, 0.00, 0.00, 0.00, 0.00, 10:50:45.394
45, 4384.61, 0.00, 0.00, -187500.02, 0.00, -138430.19, 0.00, 0.00, 0.00, 0.00, 0.00, 10:50:45.398
46, 7196.26, 0.00, 0.00, -187264.66, 0.00, -137744.72, 0.00, 0.00, -0.07, -0.56, 0.84, 10:50:45.402
47, 6092.73, 0.00, 0.00, -187500.02, 0.00, -137992.88, 0.00, 0.00, 0.00, 0.00, 0.00, 10:50:45.406
48, 2976.49, 0.00, 0.00, -187500.02, 0.00, -138746.14, 0.00, 0.00, 0.00, 0.00, 0.00, 10:50:45.412
49, 3653.44, 0.00, 0.00, -187500.02, 0.00, -138585.34, 0.00, 0.00, 0.00, 0.00, 0.00, 10:50:45.415
50, 7021.71, 0.00, 0.00, -187311.56, 0.00, -137770.31, 0.00, 0.00, 0.00, 0.00, 0.00, 10:50:45.419
51, 6435.80, 0.00, 0.00, -187459.45, 0.00, -137915.36, 0.00, 0.00, 0.00, 0.00, 0.00, 10:50:45.422
52, 3465.26, 0.00, 0.00, -187500.02, 0.00, -138661.48, 0.00, 0.00, 0.00, 0.00, 0.00, 10:50:45.426
53, 2992.92, 0.00, 0.00, -187500.02, 0.00, -138764.92, 0.00, 0.00, 0.00, 0.00, 0.00, 10:50:45.430
54, 6656.95, 0.00, 0.00, -187405.77, 0.00, -137840.52, 0.00, 0.00, 0.00, 0.00, 0.00, 10:50:45.434
55, 6703.87, 0.00, 0.00, -187414.66, 0.00, -137844.67, 0.00, 0.00, 0.00, 0.00, 0.00, 10:50:45.438
56, 4023.34, 0.00, 0.00, -187500.02, 0.00, -138510.72, 0.00, 0.00, -0.08, -0.57, 0.85, 10:50:45.442
57, 2521.12, 0.00, 0.00, -187500.02, 0.00, -138875.78, 0.00, 0.00, 0.00, 0.00, 0.00, 10:50:45.447
58, 6187.23, 0.00, 0.00, -187500.02, 0.00, -138001.00, 0.00, 0.00, 0.00, 0.00, 0.00, 10:50:45.450
59, 6945.74, 0.00, 0.00, -187395.52, 0.00, -137804.92, 0.00, 0.00, 0.00, 0.00, 0.00, 10:50:45.454
60, 4636.76, 0.00, 0.00, -187500.02, 0.00, -138368.61, 0.00, 0.00, 0.00, 0.00, 0.00, 10:50:45.458
61, 2287.03, 0.00, 0.00, -187500.02, 0.00, -138933.20, 0.00, 0.00, 0.00, 0.00, 0.00, 10:50:45.461
62, 5554.43, 0.00, 0.00, -187500.02, 0.00, -138120.72, 0.00, 0.00, 0.00, 0.00, 0.00, 10:50:45.466
63, 7127.28, 0.00, 0.00, -187359.94, 0.00, -137741.25, 0.00, 0.00, 0.00, 0.00, 0.00, 10:50:45.470
64, 5236.14, 0.00, 0.00, -187500.02, 0.00, -138202.16, 0.00, 0.00, 0.00, 0.00, 0.00, 10:50:45.475
65, 2314.88, 0.00, 0.00, -187500.02, 0.00, -138898.25, 0.00, 0.00, -0.07, -0.56, 0.84, 10:50:45.479
66, 4841.01, 0.00, 0.00, -187500.02, 0.00, -138291.22, 0.00, 0.00, 0.00, 0.00, 0.00, 10:50:45.482
67, 7210.52, 0.00, 0.00, -187346.09, 0.00, -137702.28, 0.00, 0.00, 0.00, 0.00, 0.00, 10:50:45.485
68, 5771.31, 0.00, 0.00, -187500.02, 0.00, -138082.05, 0.00, 0.00, 0.00, 0.00, 0.00, 10:50:45.490
69, 2588.26, 0.00, 0.00, -187500.02, 0.00, -138855.61, 0.00, 0.00, 0.00, 0.00, 0.00, 10:50:45.496
70, 4054.25, 0.00, 0.00, -187500.02, 0.00, -138511.97, 0.00, 0.00, 0.00, 0.00, 0.00, 10:50:45.500
71, 7171.51, 0.00, 0.00, -187430.69, 0.00, -137762.89, 0.00, 0.00, 0.00, 0.00, 0.00, 10:50:45.504
72, 6249.64, 0.00, 0.00, -187500.02, 0.00, -137977.66, 0.00, 0.00, 0.00, 0.00, 0.00, 10:50:45.506
73, 3081.34, 0.00, 0.00, -187500.02, 0.00, -138730.72, 0.00, 0.00, 0.00, 0.00, 0.00, 10:50:45.510
74, 3373.19, 0.00, 0.00, -187500.02, 0.00, -138661.97, 0.00, 0.00, 0.00, 0.00, 0.00, 10:50:45.514
75, 7002.00, 0.00, 0.00, -187495.34, 0.00, -137804.17, 0.00, 0.00, -0.08, -0.55, 0.84, 10:50:45.518
76, 6649.38, 0.00, 0.00, -187500.02, 0.00, -137881.97, 0.00, 0.00, 0.00, 0.00, 0.00, 10:50:45.522
77, 3700.47, 0.00, 0.00, -187500.02, 0.00, -138575.06, 0.00, 0.00, 0.00, 0.00, 0.00, 10:50:45.527
78, 2839.88, 0.00, 0.00, -187500.02, 0.00, -138775.89, 0.00, 0.00, 0.00, 0.00, 0.00, 10:50:45.530
79, 6647.81, 0.00, 0.00, -187500.02, 0.00, -137860.23, 0.00, 0.00, 0.00, 0.00, 0.00, 10:50:45.533
80, 6975.76, 0.00, 0.00, -187500.02, 0.00, -137805.00, 0.00, 0.00, 0.00, 0.00, 0.00, 10:50:45.538
81, 4374.42, 0.00, 0.00, -187500.02, 0.00, -138453.78, 0.00, 0.00, 0.00, 0.00, 0.00, 10:50:45.543
82, 2493.85, 0.00, 0.00, -187500.02, 0.00, -138869.86, 0.00, 0.00, 0.00, 0.00, 0.00, 10:50:45.546
83, 6120.22, 0.00, 0.00, -187500.02, 0.00, -138008.30, 0.00, 0.00, 0.00, 0.00, 0.00, 10:50:45.550
84, 7182.13, 0.00, 0.00, -187500.02, 0.00, -137764.41, 0.00, 0.00, 0.00, 0.00, 0.00, 10:50:45.555
85, 4981.11, 0.00, 0.00, -187500.02, 0.00, -138278.34, 0.00, 0.00, -0.08, -0.55, 0.84, 10:50:45.558
86, 2361.60, 0.00, 0.00, -187500.02, 0.00, -138903.86, 0.00, 0.00, 0.00, 0.00, 0.00, 10:50:45.562
87, 5427.47, 0.00, 0.00, -187500.02, 0.00, -138160.39, 0.00, 0.00, 0.00, 0.00, 0.00, 10:50:45.566
88, 7277.19, 0.00, 0.00, -187459.09, 0.00, -137697.11, 0.00, 0.00, 0.00, 0.00, 0.00, 10:50:45.570
89, 5521.26, 0.00, 0.00, -187500.02, 0.00, -138113.64, 0.00, 0.00, 0.00, 0.00, 0.00, 10:50:45.574
90, 2464.91, 0.00, 0.00, -187500.02, 0.00, -138866.06, 0.00, 0.00, 0.00, 0.00, 0.00, 10:50:45.578
91, 4651.44, 0.00, 0.00, -187500.02, 0.00, -138323.67, 0.00, 0.00, 0.00, 0.00, 0.00, 10:50:45.583
92, 7296.46, 0.00, 0.00, -187465.30, 0.00, -137680.42, 0.00, 0.00, 0.00, 0.00, 0.00, 10:50:45.587
93, 6002.76, 0.00, 0.00, -187500.02, 0.00, -138004.98, 0.00, 0.00, 0.00, 0.00, 0.00, 10:50:45.590
94, 2775.73, 0.00, 0.00, -187500.02, 0.00, -138786.92, 0.00, 0.00, 0.00, 0.00, 0.00, 10:50:45.594
95, 3854.13, 0.00, 0.00, -187500.02, 0.00, -138548.67, 0.00, 0.00, -0.07, -0.56, 0.83, 10:50:45.599
96, 7113.73, 0.00, 0.00, -187500.02, 0.00, -137770.78, 0.00, 0.00, 0.00, 0.00, 0.00, 10:50:45.602
97, 6321.88, 0.00, 0.00, -187500.02, 0.00, -137952.64, 0.00, 0.00, 0.00, 0.00, 0.00, 10:50:45.606
98, 3188.03, 0.00, 0.00, -187500.02, 0.00, -138698.47, 0.00, 0.00, 0.00, 0.00, 0.00, 10:50:45.610
99, 3105.35, 0.00, 0.00, -187500.02, 0.00, -138721.83, 0.00, 0.00, 0.00, 0.00, 0.00, 10:50:45.614
100, 6818.33, 0.00, 0.00, -187500.02, 0.00, -137859.50, 0.00, 0.00, 0.00, 0.00, 0.00, 10:50:45.617
101, 6659.61, 0.00, 0.00, -187500.02, 0.00, -137924.00, 0.00, 0.00, 0.00, 0.00, 0.00, 10:50:45.622
102, 3772.04, 0.00, 0.00, -187500.02, 0.00, -138599.63, 0.00, 0.00, 0.00, 0.00, 0.00, 10:50:45.627
103, 2570.74, 0.00, 0.00, -187500.02, 0.00, -138880.28, 0.00, 0.00, 0.00, 0.00, 0.00, 10:50:45.630
104, 6374.92, 0.00, 0.00, -187500.02, 0.00, -137985.86, 0.00, 0.00, 0.00, 0.00, 0.00, 10:50:45.634
105, 6890.82, 0.00, 0.00, -187500.02, 0.00, -137858.97, 0.00, 0.00, -0.07, -0.56, 0.85, 10:50:45.638
106, 4377.03, 0.00, 0.00, -187500.02, 0.00, -138464.53, 0.00, 0.00, 0.00, 0.00, 0.00, 10:50:45.642
107, 2242.37, 0.00, 0.00, -187500.02, 0.00, -138980.89, 0.00, 0.00, 0.00, 0.00, 0.00, 10:50:45.645
108, 5752.09, 0.00, 0.00, -187500.02, 0.00, -138114.02, 0.00, 0.00, 0.00, 0.00, 0.00, 10:50:45.650
109, 7057.00, 0.00, 0.00, -187500.02, 0.00, -137793.06, 0.00, 0.00, 0.00, 0.00, 0.00, 10:50:45.655
110, 4972.21, 0.00, 0.00, -187500.02, 0.00, -138279.53, 0.00, 0.00, 0.00, 0.00, 0.00, 10:50:45.658
111, 2181.31, 0.00, 0.00, -187500.02, 0.00, -138958.53, 0.00, 0.00, 0.00, 0.00, 0.00, 10:50:45.662
112, 5059.63, 0.00, 0.00, -187500.02, 0.00, -138269.23, 0.00, 0.00, 0.00, 0.00, 0.00, 10:50:45.665
113, 7189.01, 0.00, 0.00, -187500.02, 0.00, -137758.20, 0.00, 0.00, 0.00, 0.00, 0.00, 10:50:45.669
114, 5568.24, 0.00, 0.00, -187500.02, 0.00, -138167.44, 0.00, 0.00, -0.07, -0.56, 0.83, 10:50:45.673
115, 2412.49, 0.00, 0.00, -187500.02, 0.00, -138938.94, 0.00, 0.00, 0.00, 0.00, 0.00, 10:50:45.677
116, 4314.24, 0.00, 0.00, -187500.02, 0.00, -138485.41, 0.00, 0.00, 0.00, 0.00, 0.00, 10:50:45.682
117, 7191.52, 0.00, 0.00, -187500.02, 0.00, -137793.34, 0.00, 0.00, 0.00, 0.00, 0.00, 10:50:45.687
118, 6065.57, 0.00, 0.00, -187500.02, 0.00, -138104.58, 0.00, 0.00, 0.00, 0.00, 0.00, 10:50:45.691
119, 2809.26, 0.00, 0.00, -187500.02, 0.00, -138883.09, 0.00, 0.00, 0.00, 0.00, 0.00, 10:50:45.693
120, 3571.14, 0.00, 0.00, -187500.02, 0.00, -138686.80, 0.00, 0.00, 0.00, 0.00, 0.00, 10:50:45.697
121, 7057.09, 0.00, 0.00, -187500.02, 0.00, -137848.59, 0.00, 0.00, 0.00, 0.00, 0.00, 10:50:45.701
122, 6469.53, 0.00, 0.00, -187500.02, 0.00, -137991.91, 0.00, 0.00, 0.00, 0.00, 0.00, 10:50:45.705
123, 3384.86, 0.00, 0.00, -187500.02, 0.00, -138754.95, 0.00, 0.00, 0.00, 0.00, 0.00, 10:50:45.710
124, 2939.61, 0.00, 0.00, -187500.02, 0.00, -138828.52, 0.00, 0.00, -0.08, -0.56, 0.83, 10:50:45.714
125, 6783.60, 0.00, 0.00, -187500.02, 0.00, -137892.98, 0.00, 0.00, 0.00, 0.00, 0.00, 10:50:45.719
126, 6831.01, 0.00, 0.00, -187500.02, 0.00, -137910.73, 0.00, 0.00, 0.00, 0.00, 0.00, 10:50:45.721
127, 4047.88, 0.00, 0.00, -187500.02, 0.00, -138610.66, 0.00, 0.00, 0.00, 0.00, 0.00, 10:50:45.725
128, 2528.21, 0.00, 0.00, -187500.02, 0.00, -138982.19, 0.00, 0.00, 0.00, 0.00, 0.00, 10:50:45.729
129, 6352.79, 0.00, 0.00, -187500.02, 0.00, -138043.34, 0.00, 0.00, 0.00, 0.00, 0.00, 10:50:45.733
130, 7119.21, 0.00, 0.00, -187500.02, 0.00, -137825.48, 0.00, 0.00, 0.00, 0.00, 0.00, 10:50:45.738
131, 4695.52, 0.00, 0.00, -187500.02, 0.00, -138381.98, 0.00, 0.00, 0.00, 0.00, 0.00, 10:50:45.742
132, 2279.12, 0.00, 0.00, -187500.02, 0.00, -138969.91, 0.00, 0.00, 0.00, 0.00, 0.00, 10:50:45.747
133, 5702.29, 0.00, 0.00, -187500.02, 0.00, -138161.05, 0.00, 0.00, 0.00, 0.00, 0.00, 10:50:45.750
134, 7288.50, 0.00, 0.00, -187500.02, 0.00, -137789.47, 0.00, 0.00, -0.07, -0.56, 0.83, 10:50:45.753
135, 5301.25, 0.00, 0.00, -187500.02, 0.00, -138242.94, 0.00, 0.00, 0.00, 0.00, 0.00, 10:50:45.757
136, 2293.91, 0.00, 0.00, -187500.02, 0.00, -138968.91, 0.00, 0.00, 0.00, 0.00, 0.00, 10:50:45.761
137, 4927.29, 0.00, 0.00, -187500.02, 0.00, -138329.83, 0.00, 0.00, 0.00, 0.00, 0.00, 10:50:45.766
138, 7337.34, 0.00, 0.00, -187500.02, 0.00, -137739.77, 0.00, 0.00, 0.00, 0.00, 0.00, 10:50:45.771
139, 5834.34, 0.00, 0.00, -187500.02, 0.00, -138105.25, 0.00, 0.00, 0.00, 0.00, 0.00, 10:50:45.773
140, 2546.91, 0.00, 0.00, -187500.02, 0.00, -138906.66, 0.00, 0.00, 0.00, 0.00, 0.00, 10:50:45.777
141, 4124.70, 0.00, 0.00, -187500.02, 0.00, -138514.56, 0.00, 0.00, 0.00, 0.00, 0.00, 10:50:45.781
142, 7284.08, 0.00, 0.00, -187500.02, 0.00, -137757.91, 0.00, 0.00, 0.00, 0.00, 0.00, 10:50:45.785
143, 6283.37, 0.00, 0.00, -187500.02, 0.00, -138000.02, 0.00, 0.00, 0.00, 0.00, 0.00, 10:50:45.790
144, 3005.73, 0.00, 0.00, -187500.02, 0.00, -138807.48, 0.00, 0.00, -0.07, -0.55, 0.83, 10:50:45.793
145, 3396.37, 0.00, 0.00, -187500.02, 0.00, -138729.09, 0.00, 0.00, 0.00, 0.00, 0.00, 10:50:45.798
146, 7066.86, 0.00, 0.00, -187500.02, 0.00, -137839.31, 0.00, 0.00, 0.00, 0.00, 0.00, 10:50:45.802
147, 6635.54, 0.00, 0.00, -187500.02, 0.00, -137909.19, 0.00, 0.00, 0.00, 0.00, 0.00, 10:50:45.806
148, 3581.87, 0.00, 0.00, -187500.02, 0.00, -138655.56, 0.00, 0.00, 0.00, 0.00, 0.00, 10:50:45.810
149, 2758.97, 0.00, 0.00, -187500.02, 0.00, -138855.67, 0.00, 0.00, 0.00, 0.00, 0.00, 10:50:45.814
150, 6649.67, 0.00, 0.00, -187500.02, 0.00, -137918.39, 0.00, 0.00, 0.00, 0.00, 0.00, 10:50:45.817
151, 6887.53, 0.00, 0.00, -187500.02, 0.00, -137832.45, 0.00, 0.00, 0.00, 0.00, 0.00, 10:50:45.821
152, 4168.35, 0.00, 0.00, -187500.02, 0.00, -138485.80, 0.00, 0.00, 0.00, 0.00, 0.00, 10:50:45.825
153, 2319.84, 0.00, 0.00, -187500.02, 0.00, -138938.97, 0.00, 0.00, -0.08, -0.56, 0.83, 10:50:45.830
154, 6070.87, 0.00, 0.00, -187500.02, 0.00, -138031.05, 0.00, 0.00, 0.00, 0.00, 0.00, 10:50:45.833
155, 7081.21, 0.00, 0.00, -187500.02, 0.00, -137795.91, 0.00, 0.00, 0.00, 0.00, 0.00, 10:50:45.838
156, 4774.00, 0.00, 0.00, -187500.02, 0.00, -138349.73, 0.00, 0.00, 0.00, 0.00, 0.00, 10:50:45.842
157, 2140.05, 0.00, 0.00, -187500.02, 0.00, -139002.13, 0.00, 0.00, 0.00, 0.00, 0.00, 10:50:45.844
158, 5365.54, 0.00, 0.00, -187500.02, 0.00, -138209.75, 0.00, 0.00, 0.00, 0.00, 0.00, 10:50:45.849
159, 7209.20, 0.00, 0.00, -187500.02, 0.00, -137756.55, 0.00, 0.00, 0.00, 0.00, 0.00, 10:50:45.853
160, 5363.68, 0.00, 0.00, -187500.02, 0.00, -138184.45, 0.00, 0.00, 0.00, 0.00, 0.00, 10:50:45.858
161, 2229.79, 0.00, 0.00, -187500.02, 0.00, -138912.64, 0.00, 0.00, 0.00, 0.00, 0.00, 10:50:45.862
162, 4599.34, 0.00, 0.00, -187500.02, 0.00, -138343.66, 0.00, 0.00, 0.00, 0.00, 0.00, 10:50:45.866
163, 7252.31, 0.00, 0.00, -187500.02, 0.00, -137688.23, 0.00, 0.00, -0.07, -0.55, 0.84, 10:50:45.870
164, 5903.34, 0.00, 0.00, -187500.02, 0.00, -138049.55, 0.00, 0.00, 0.00, 0.00, 0.00, 10:50:45.873
165, 2589.02, 0.00, 0.00, -187500.02, 0.00, -138858.86, 0.00, 0.00, 0.00, 0.00, 0.00, 10:50:45.877
166, 3807.46, 0.00, 0.00, -187500.02, 0.00, -138512.13, 0.00, 0.00, 0.00, 0.00, 0.00, 10:50:45.881
167, 7147.48, 0.00, 0.00, -187500.02, 0.00, -137695.61, 0.00, 0.00, 0.00, 0.00, 0.00, 10:50:45.886
168, 6334.17, 0.00, 0.00, -187500.02, 0.00, -137918.22, 0.00, 0.00, 0.00, 0.00, 0.00, 10:50:45.889
169, 3101.80, 0.00, 0.00, -187500.02, 0.00, -138722.13, 0.00, 0.00, 0.00, 0.00, 0.00, 10:50:45.894
170, 3144.56, 0.00, 0.00, -187500.02, 0.00, -138735.33, 0.00, 0.00, 0.00, 0.00, 0.00, 10:50:45.898
171, 6950.34, 0.00, 0.00, -187500.02, 0.00, -137821.56, 0.00, 0.00, 0.00, 0.00, 0.00, 10:50:45.900
172, 6721.24, 0.00, 0.00, -187500.02, 0.00, -137838.55, 0.00, 0.00, 0.00, 0.00, 0.00, 10:50:45.905
173, 3756.84, 0.00, 0.00, -187500.02, 0.00, -138562.92, 0.00, 0.00, -0.08, -0.56, 0.83, 10:50:45.910
174, 2620.14, 0.00, 0.00, -187500.02, 0.00, -138841.44, 0.00, 0.00, 0.00, 0.00, 0.00, 10:50:45.913
175, 6542.87, 0.00, 0.00, -187500.02, 0.00, -137895.34, 0.00, 0.00, 0.00, 0.00, 0.00, 10:50:45.918
176, 7035.57, 0.00, 0.00, -187500.02, 0.00, -137786.88, 0.00, 0.00, 0.00, 0.00, 0.00, 10:50:45.922
177, 4450.68, 0.00, 0.00, -187500.02, 0.00, -138420.03, 0.00, 0.00, 0.00, 0.00, 0.00, 10:50:45.925
178, 2328.81, 0.00, 0.00, -187500.02, 0.00, -138908.23, 0.00, 0.00, 0.00, 0.00, 0.00, 10:50:45.929
179, 5981.80, 0.00, 0.00, -187500.02, 0.00, -138017.44, 0.00, 0.00, 0.00, 0.00, 0.00, 10:50:45.934
180, 7273.41, 0.00, 0.00, -187500.02, 0.00, -137727.08, 0.00, 0.00, 0.00, 0.00, 0.00, 10:50:45.937
181, 5123.22, 0.00, 0.00, -187500.02, 0.00, -138264.73, 0.00, 0.00, 0.00, 0.00, 0.00, 10:50:45.941
182, 2285.26, 0.00, 0.00, -187500.02, 0.00, -138934.17, 0.00, 0.00, 0.00, 0.00, 0.00, 10:50:45.946
183, 5288.38, 0.00, 0.00, -187500.02, 0.00, -138219.55, 0.00, 0.00, -0.08, -0.54, 0.83, 10:50:45.951
184, 7383.03, 0.00, 0.00, -187500.02, 0.00, -137695.59, 0.00, 0.00, 0.00, 0.00, 0.00, 10:50:45.953
185, 5678.53, 0.00, 0.00, -187500.02, 0.00, -138094.13, 0.00, 0.00, 0.00, 0.00, 0.00, 10:50:45.957
186, 2443.87, 0.00, 0.00, -187500.02, 0.00, -138860.13, 0.00, 0.00, 0.00, 0.00, 0.00, 10:50:45.961
187, 4470.24, 0.00, 0.00, -187500.02, 0.00, -138373.50, 0.00, 0.00, 0.00, 0.00, 0.00, 10:50:45.965
188, 7350.17, 0.00, 0.00, -187500.02, 0.00, -137675.08, 0.00, 0.00, 0.00, 0.00, 0.00, 10:50:45.972
189, 6150.75, 0.00, 0.00, -187500.02, 0.00, -137991.08, 0.00, 0.00, 0.00, 0.00, 0.00, 10:50:45.973
190, 2810.35, 0.00, 0.00, -187500.02, 0.00, -138761.80, 0.00, 0.00, 0.00, 0.00, 0.00, 10:50:45.976
191, 3683.52, 0.00, 0.00, -187500.02, 0.00, -138553.81, 0.00, 0.00, 0.00, 0.00, 0.00, 10:50:45.981
192, 7216.01, 0.00, 0.00, -187500.02, 0.00, -137725.67, 0.00, 0.00, 0.00, 0.00, 0.00, 10:50:45.985
193, 6557.53, 0.00, 0.00, -187500.02, 0.00, -137900.36, 0.00, 0.00, -0.08, -0.55, 0.83, 10:50:45.989
194, 3350.50, 0.00, 0.00, -187500.02, 0.00, -138664.39, 0.00, 0.00, 0.00, 0.00, 0.00, 10:50:45.993
195, 2992.54, 0.00, 0.00, -187500.02, 0.00, -138743.67, 0.00, 0.00, 0.00, 0.00, 0.00, 10:50:45.997
196, 6868.62, 0.00, 0.00, -187500.02, 0.00, -137806.14, 0.00, 0.00, 0.00, 0.00, 0.00, 10:50:46.002
197, 6857.76, 0.00, 0.00, -187500.02, 0.00, -137824.86, 0.00, 0.00, 0.00, 0.00, 0.00, 10:50:46.004
198, 3984.62, 0.00, 0.00, -187500.02, 0.00, -138533.31, 0.00, 0.00, 0.00, 0.00, 0.00, 10:50:46.009
199, 2500.51, 0.00, 0.00, -187500.02, 0.00, -138883.67, 0.00, 0.00, 0.00, 0.00, 0.00, 10:50:46.013
200, 6369.87, 0.00, 0.00, -187500.02, 0.00, -137936.14, 0.00, 0.00, 0.00, 0.00, 0.00, 10:50:46.017
201, 7078.66, 0.00, 0.00, -187500.02, 0.00, -137747.84, 0.00, 0.00, 0.00, 0.00, 0.00, 10:50:46.022
202, 4607.92, 0.00, 0.00, -187500.02, 0.00, -138365.42, 0.00, 0.00, -0.08, -0.54, 0.84, 10:50:46.026
203, 2228.89, 0.00, 0.00, -187500.02, 0.00, -138968.14, 0.00, 0.00, 0.00, 0.00, 0.00, 10:50:46.029
204, 5703.72, 0.00, 0.00, -187500.02, 0.00, -138123.77, 0.00, 0.00, 0.00, 0.00, 0.00, 10:50:46.033
205, 7223.15, 0.00, 0.00, -187500.02, 0.00, -137765.20, 0.00, 0.00, 0.00, 0.00, 0.00, 10:50:46.037
206, 5172.64, 0.00, 0.00, -187500.02, 0.00, -138233.52, 0.00, 0.00, 0.00, 0.00, 0.00, 10:50:46.040
207, 2187.97, 0.00, 0.00, -187500.02, 0.00, -138955.92, 0.00, 0.00, 0.00, 0.00, 0.00, 10:50:46.045
208, 4926.53, 0.00, 0.00, -187500.02, 0.00, -138307.58, 0.00, 0.00, 0.00, 0.00, 0.00, 10:50:46.050
209, 7271.20, 0.00, 0.00, -187500.02, 0.00, -137752.61, 0.00, 0.00, 0.00, 0.00, 0.00, 10:50:46.054
210, 5721.35, 0.00, 0.00, -187500.02, 0.00, -138123.67, 0.00, 0.00, 0.00, 0.00, 0.00, 10:50:46.058
211, 2469.62, 0.00, 0.00, -187500.02, 0.00, -138910.97, 0.00, 0.00, 0.00, 0.00, 0.00, 10:50:46.061
212, 4158.43, 0.00, 0.00, -187500.02, 0.00, -138499.72, 0.00, 0.00, -0.07, -0.55, 0.84, 10:50:46.065
213, 7217.24, 0.00, 0.00, -187500.02, 0.00, -137770.88, 0.00, 0.00, 0.00, 0.00, 0.00, 10:50:46.068
214, 6168.21, 0.00, 0.00, -187500.02, 0.00, -138038.16, 0.00, 0.00, 0.00, 0.00, 0.00, 10:50:46.073
215, 2940.62, 0.00, 0.00, -187500.02, 0.00, -138817.06, 0.00, 0.00, 0.00, 0.00, 0.00, 10:50:46.078
216, 3483.65, 0.00, 0.00, -187500.02, 0.00, -138675.69, 0.00, 0.00, 0.00, 0.00, 0.00, 10:50:46.082
217, 7052.49, 0.00, 0.00, -187500.02, 0.00, -137815.53, 0.00, 0.00, 0.00, 0.00, 0.00, 10:50:46.086
218, 6546.62, 0.00, 0.00, -187500.02, 0.00, -137952.03, 0.00, 0.00, 0.00, 0.00, 0.00, 10:50:46.089
219, 3511.91, 0.00, 0.00, -187500.02, 0.00, -138702.42, 0.00, 0.00, 0.00, 0.00, 0.00, 10:50:46.093
220, 2870.50, 0.00, 0.00, -187500.02, 0.00, -138845.36, 0.00, 0.00, 0.00, 0.00, 0.00, 10:50:46.096
221, 6688.18, 0.00, 0.00, -187500.02, 0.00, -137910.75, 0.00, 0.00, 0.00, 0.00, 0.00, 10:50:46.100
222, 6857.38, 0.00, 0.00, -187500.02, 0.00, -137886.16, 0.00, 0.00, -0.09, -0.57, 0.84, 10:50:46.105
223, 4154.59, 0.00, 0.00, -187500.02, 0.00, -138521.25, 0.00, 0.00, 0.00, 0.00, 0.00, 10:50:46.110
224, 2481.18, 0.00, 0.00, -187500.02, 0.00, -138911.97, 0.00, 0.00, 0.00, 0.00, 0.00, 10:50:46.112
225, 6211.80, 0.00, 0.00, -187500.02, 0.00, -138023.78, 0.00, 0.00, 0.00, 0.00, 0.00, 10:50:46.117
226, 7137.45, 0.00, 0.00, -187500.02, 0.00, -137811.27, 0.00, 0.00, 0.00, 0.00, 0.00, 10:50:46.121
227, 4853.44, 0.00, 0.00, -187500.02, 0.00, -138371.02, 0.00, 0.00, 0.00, 0.00, 0.00, 10:50:46.124
228, 2346.69, 0.00, 0.00, -187500.02, 0.00, -138968.02, 0.00, 0.00, 0.00, 0.00, 0.00, 10:50:46.128
229, 5590.10, 0.00, 0.00, -187500.02, 0.00, -138183.83, 0.00, 0.00, 0.00, 0.00, 0.00, 10:50:46.133
230, 7325.63, 0.00, 0.00, -187500.02, 0.00, -137784.17, 0.00, 0.00, 0.00, 0.00, 0.00, 10:50:46.138
231, 5458.77, 0.00, 0.00, -187500.02, 0.00, -138223.34, 0.00, 0.00, 0.00, 0.00, 0.00, 10:50:46.141
232, 2413.27, 0.00, 0.00, -187500.02, 0.00, -138935.53, 0.00, 0.00, -0.08, -0.56, 0.83, 10:50:46.144
233, 4839.35, 0.00, 0.00, -187500.02, 0.00, -138340.59, 0.00, 0.00, 0.00, 0.00, 0.00, 10:50:46.148
234, 7387.61, 0.00, 0.00, -187500.02, 0.00, -137763.00, 0.00, 0.00, 0.00, 0.00, 0.00, 10:50:46.153
235, 5978.62, 0.00, 0.00, -187500.02, 0.00, -138098.02, 0.00, 0.00, 0.00, 0.00, 0.00, 10:50:46.157
236, 2683.35, 0.00, 0.00, -187500.02, 0.00, -138863.78, 0.00, 0.00, 0.00, 0.00, 0.00, 10:50:46.161
237, 4028.52, 0.00, 0.00, -187500.02, 0.00, -138532.58, 0.00, 0.00, 0.00, 0.00, 0.00, 10:50:46.166
238, 7292.26, 0.00, 0.00, -187500.02, 0.00, -137756.84, 0.00, 0.00, 0.00, 0.00, 0.00, 10:50:46.168
239, 6415.84, 0.00, 0.00, -187500.02, 0.00, -137964.81, 0.00, 0.00, 0.00, 0.00, 0.00, 10:50:46.172
240, 3164.14, 0.00, 0.00, -187500.02, 0.00, -138749.64, 0.00, 0.00, 0.00, 0.00, 0.00, 10:50:46.176
241, 3276.90, 0.00, 0.00, -187500.02, 0.00, -138713.84, 0.00, 0.00, 0.00, 0.00, 0.00, 10:50:46.181
242, 7026.56, 0.00, 0.00, -187500.02, 0.00, -137808.30, 0.00, 0.00, -0.08, -0.56, 0.83, 10:50:46.185
243, 6756.13, 0.00, 0.00, -187500.02, 0.00, -137882.25, 0.00, 0.00, 0.00, 0.00, 0.00, 10:50:46.189
244, 3758.96, 0.00, 0.00, -187500.02, 0.00, -138609.91, 0.00, 0.00, 0.00, 0.00, 0.00, 10:50:46.194
245, 2694.68, 0.00, 0.00, -187500.02, 0.00, -138868.08, 0.00, 0.00, 0.00, 0.00, 0.00, 10:50:46.196
246, 6608.85, 0.00, 0.00, -187500.02, 0.00, -137969.17, 0.00, 0.00, 0.00, 0.00, 0.00, 10:50:46.201
247, 7026.70, 0.00, 0.00, -187500.02, 0.00, -137894.67, 0.00, 0.00, 0.00, 0.00, 0.00, 10:50:46.205
248, 4392.12, 0.00, 0.00, -187500.02, 0.00, -138514.27, 0.00, 0.00, 0.00, 0.00, 0.00, 10:50:46.209
249, 2341.66, 0.00, 0.00, -187500.02, 0.00, -138991.72, 0.00, 0.00, 0.00, 0.00, 0.00, 10:50:46.213
250, 5990.31, 0.00, 0.00, -187500.02, 0.00, -138122.08, 0.00, 0.00, 0.00, 0.00, 0.00, 10:50:46.219
251, 7151.02, 0.00, 0.00, -187500.02, 0.00, -137825.66, 0.00, 0.00, -0.07, -0.55, 0.84, 10:50:46.222
252, 4947.85, 0.00, 0.00, -187500.02, 0.00, -138335.08, 0.00, 0.00, 0.00, 0.00, 0.00, 10:50:46.226
253, 2183.68, 0.00, 0.00, -187500.02, 0.00, -138986.94, 0.00, 0.00, 0.00, 0.00, 0.00, 10:50:46.229
254, 5210.39, 0.00, 0.00, -187500.02, 0.00, -138236.44, 0.00, 0.00, 0.00, 0.00, 0.00, 10:50:46.233
255, 7199.14, 0.00, 0.00, -187500.02, 0.00, -137772.48, 0.00, 0.00, 0.00, 0.00, 0.00, 10:50:46.237
0, 5456.15, 0.00, 0.00, -187500.02, 0.00, -138191.23, 0.00, 0.00, 0.00, 0.00, 0.00, 10:50:46.241
1, 2287.01, 0.00, 0.00, -187500.02, 0.00, -138954.63, 0.00, 0.00, 0.00, 0.00, 0.00, 10:50:46.245
2, 4410.42, 0.00, 0.00, -187500.02, 0.00, -138437.58, 0.00, 0.00, 0.00, 0.00, 0.00, 10:50:46.249
3, 7196.23, 0.00, 0.00, -187500.02, 0.00, -137766.33, 0.00, 0.00, 0.00, 0.00, 0.00, 10:50:46.252
4, 5912.08, 0.00, 0.00, -187500.02, 0.00, -138048.13, 0.00, 0.00, 0.00, 0.00, 0.00, 10:50:46.256
5, 2617.34, 0.00, 0.00, -187500.02, 0.00, -138828.16, 0.00, 0.00, -0.07, -0.56, 0.84, 10:50:46.261
6, 3627.98, 0.00, 0.00, -187500.02, 0.00, -138599.19, 0.00, 0.00, 0.00, 0.00, 0.00, 10:50:46.265
7, 7078.19, 0.00, 0.00, -187500.02, 0.00, -137775.83, 0.00, 0.00, 0.00, 0.00, 0.00, 10:50:46.269
8, 6375.57, 0.00, 0.00, -187500.02, 0.00, -137970.47, 0.00, 0.00, 0.00, 0.00, 0.00, 10:50:46.273
9, 3186.58, 0.00, 0.00, -187500.02, 0.00, -138738.41, 0.00, 0.00, 0.00, 0.00, 0.00, 10:50:46.277
10, 2973.77, 0.00, 0.00, -187500.02, 0.00, -138792.48, 0.00, 0.00, 0.00, 0.00, 0.00, 10:50:46.280
11, 6806.22, 0.00, 0.00, -187500.02, 0.00, -137855.41, 0.00, 0.00, 0.00, 0.00, 0.00, 10:50:46.285
12, 6708.76, 0.00, 0.00, -187500.02, 0.00, -137848.59, 0.00, 0.00, 0.00, 0.00, 0.00, 10:50:46.289
13, 3806.52, 0.00, 0.00, -187500.02, 0.00, -138563.80, 0.00, 0.00, 0.00, 0.00, 0.00, 10:50:46.292
14, 2450.82, 0.00, 0.00, -187500.02, 0.00, -138905.88, 0.00, 0.00, 0.00, 0.00, 0.00, 10:50:46.297
15, 6337.23, 0.00, 0.00, -187500.02, 0.00, -137943.52, 0.00, 0.00, -0.08, -0.56, 0.84, 10:50:46.301
16, 6974.19, 0.00, 0.00, -187500.02, 0.00, -137768.59, 0.00, 0.00, 0.00, 0.00, 0.00, 10:50:46.305
17, 4474.80, 0.00, 0.00, -187500.02, 0.00, -138376.83, 0.00, 0.00, 0.00, 0.00, 0.00, 10:50:46.307
18, 2205.13, 0.00, 0.00, -187500.02, 0.00, -138955.47, 0.00, 0.00, 0.00, 0.00, 0.00, 10:50:46.312
19, 5759.22, 0.00, 0.00, -187500.02, 0.00, -138091.67, 0.00, 0.00, 0.00, 0.00, 0.00, 10:50:46.317
20, 7195.52, 0.00, 0.00, -187500.02, 0.00, -137712.27, 0.00, 0.00, 0.00, 0.00, 0.00, 10:50:46.321
21, 5140.54, 0.00, 0.00, -187500.02, 0.00, -138214.06, 0.00, 0.00, 0.00, 0.00, 0.00, 10:50:46.325
22, 2204.40, 0.00, 0.00, -187500.02, 0.00, -138912.72, 0.00, 0.00, 0.00, 0.00, 0.00, 10:50:46.329
23, 5046.76, 0.00, 0.00, -187500.02, 0.00, -138216.30, 0.00, 0.00, 0.00, 0.00, 0.00, 10:50:46.333
24, 7345.65, 0.00, 0.00, -187500.02, 0.00, -137698.97, 0.00, 0.00, 0.00, 0.00, 0.00, 10:50:46.336
25, 5743.03, 0.00, 0.00, -187500.02, 0.00, -138083.89, 0.00, 0.00, -0.08, -0.56, 0.84, 10:50:46.340
26, 2481.67, 0.00, 0.00, -187500.02, 0.00, -138885.88, 0.00, 0.00, 0.00, 0.00, 0.00, 10:50:46.345
27, 4268.13, 0.00, 0.00, -187500.02, 0.00, -138439.77, 0.00, 0.00, 0.00, 0.00, 0.00, 10:50:46.349
28, 7297.24, 0.00, 0.00, -187500.02, 0.00, -137699.09, 0.00, 0.00, 0.00, 0.00, 0.00, 10:50:46.353
29, 6185.40, 0.00, 0.00, -187500.02, 0.00, -137954.61, 0.00, 0.00, 0.00, 0.00, 0.00, 10:50:46.356
30, 2870.88, 0.00, 0.00, -187500.02, 0.00, -138748.42, 0.00, 0.00, 0.00, 0.00, 0.00, 10:50:46.360
31, 3496.51, 0.00, 0.00, -187500.02, 0.00, -138610.89, 0.00, 0.00, 0.00, 0.00, 0.00, 10:50:46.364
32, 7124.82, 0.00, 0.00, -187500.02, 0.00, -137751.38, 0.00, 0.00, 0.00, 0.00, 0.00, 10:50:46.368
33, 6575.17, 0.00, 0.00, -187500.02, 0.00, -137890.19, 0.00, 0.00, 0.00, 0.00, 0.00, 10:50:46.373
34, 3379.43, 0.00, 0.00, -187500.02, 0.00, -138640.28, 0.00, 0.00, -0.08, -0.56, 0.84, 10:50:46.377
35, 2743.97, 0.00, 0.00, -187500.02, 0.00, -138792.73, 0.00, 0.00, 0.00, 0.00, 0.00, 10:50:46.381
36, 6687.37, 0.00, 0.00, -187500.02, 0.00, -137845.03, 0.00, 0.00, 0.00, 0.00, 0.00, 10:50:46.383
37, 6819.70, 0.00, 0.00, -187500.02, 0.00, -137818.69, 0.00, 0.00, 0.00, 0.00, 0.00, 10:50:46.389
38, 3980.15, 0.00, 0.00, -187500.02, 0.00, -138499.66, 0.00, 0.00, 0.00, 0.00, 0.00, 10:50:46.392
39, 2239.64, 0.00, 0.00, -187500.02, 0.00, -138901.33, 0.00, 0.00, 0.00, 0.00, 0.00, 10:50:46.396
40, 6154.91, 0.00, 0.00, -187500.02, 0.00, -137937.58, 0.00, 0.00, 0.00, 0.00, 0.00, 10:50:46.401
41, 7082.33, 0.00, 0.00, -187500.02, 0.00, -137734.11, 0.00, 0.00, 0.00, 0.00, 0.00, 10:50:46.405
42, 4651.38, 0.00, 0.00, -187500.02, 0.00, -138333.36, 0.00, 0.00, 0.00, 0.00, 0.00, 10:50:46.409
43, 2013.15, 0.00, 0.00, -187500.02, 0.00, -138931.11, 0.00, 0.00, 0.00, 0.00, 0.00, 10:50:46.412
44, 5470.28, 0.00, 0.00, -187500.02, 0.00, -138092.33, 0.00, 0.00, -0.08, -0.56, 0.84, 10:50:46.416
45, 7225.04, 0.00, 0.00, -187500.02, 0.00, -137678.53, 0.00, 0.00, 0.00, 0.00, 0.00, 10:50:46.420
46, 5231.31, 0.00, 0.00, -187500.02, 0.00, -138143.88, 0.00, 0.00, 0.00, 0.00, 0.00, 10:50:46.424
47, 2025.05, 0.00, 0.00, -187500.02, 0.00, -138911.53, 0.00, 0.00, 0.00, 0.00, 0.00, 10:50:46.429
48, 4634.05, 0.00, 0.00, -187500.02, 0.00, -138276.33, 0.00, 0.00, 0.00, 0.00, 0.00, 10:50:46.433
49, 7262.73, 0.00, 0.00, -187500.02, 0.00, -137662.53, 0.00, 0.00, 0.00, 0.00, 0.00, 10:50:46.437
50, 5757.43, 0.00, 0.00, -187500.02, 0.00, -138009.91, 0.00, 0.00, 0.00, 0.00, 0.00, 10:50:46.441
51, 2302.01, 0.00, 0.00, -187500.02, 0.00, -138839.64, 0.00, 0.00, 0.00, 0.00, 0.00, 10:50:46.445
52, 3775.72, 0.00, 0.00, -187500.02, 0.00, -138478.02, 0.00, 0.00, 0.00, 0.00, 0.00, 10:50:46.450
53, 7151.78, 0.00, 0.00, -187500.02, 0.00, -137663.36, 0.00, 0.00, 0.00, 0.00, 0.00, 10:50:46.454
54, 6197.98, 0.00, 0.00, -187500.02, 0.00, -137889.11, 0.00, 0.00, -0.08, -0.56, 0.83, 10:50:46.458
55, 2789.36, 0.00, 0.00, -187500.02, 0.00, -138709.11, 0.00, 0.00, 0.00, 0.00, 0.00, 10:50:46.462
56, 3023.27, 0.00, 0.00, -187500.02, 0.00, -138647.67, 0.00, 0.00, 0.00, 0.00, 0.00, 10:50:46.467
57, 6940.51, 0.00, 0.00, -187500.02, 0.00, -137705.14, 0.00, 0.00, 0.00, 0.00, 0.00, 10:50:46.470
58, 6620.32, 0.00, 0.00, -187500.02, 0.00, -137821.64, 0.00, 0.00, 0.00, 0.00, 0.00, 10:50:46.473
59, 3458.62, 0.00, 0.00, -187500.02, 0.00, -138596.09, 0.00, 0.00, 0.00, 0.00, 0.00, 10:50:46.477
60, 2459.68, 0.00, 0.00, -187500.02, 0.00, -138854.89, 0.00, 0.00, 0.00, 0.00, 0.00, 10:50:46.480
61, 6551.21, 0.00, 0.00, -187500.02, 0.00, -137855.88, 0.00, 0.00, 0.00, 0.00, 0.00, 10:50:46.484
62, 6921.98, 0.00, 0.00, -187500.02, 0.00, -137747.05, 0.00, 0.00, 0.00, 0.00, 0.00, 10:50:46.489
63, 4142.67, 0.00, 0.00, -187500.02, 0.00, -138418.56, 0.00, 0.00, 0.00, 0.00, 0.00, 10:50:46.492
64, 2068.54, 0.00, 0.00, -187500.02, 0.00, -138908.23, 0.00, 0.00, -0.07, -0.56, 0.83, 10:50:46.496
65, 5973.06, 0.00, 0.00, -187500.02, 0.00, -137963.33, 0.00, 0.00, 0.00, 0.00, 0.00, 10:50:46.500
66, 7157.16, 0.00, 0.00, -187500.02, 0.00, -137681.91, 0.00, 0.00, 0.00, 0.00, 0.00, 10:50:46.504
67, 4837.83, 0.00, 0.00, -187500.02, 0.00, -138250.05, 0.00, 0.00, 0.00, 0.00, 0.00, 10:50:46.508
68, 1969.93, 0.00, 0.00, -187500.02, 0.00, -138939.80, 0.00, 0.00, 0.00, 0.00, 0.00, 10:50:46.513
69, 5251.94, 0.00, 0.00, -187500.02, 0.00, -138133.98, 0.00, 0.00, 0.00, 0.00, 0.00, 10:50:46.518
70, 7324.31, 0.00, 0.00, -187500.02, 0.00, -137638.69, 0.00, 0.00, 0.00, 0.00, 0.00, 10:50:46.522
71, 5486.37, 0.00, 0.00, -187500.02, 0.00, -138084.28, 0.00, 0.00, 0.00, 0.00, 0.00, 10:50:46.525
72, 2155.65, 0.00, 0.00, -187500.02, 0.00, -138858.80, 0.00, 0.00, 0.00, 0.00, 0.00, 10:50:46.529
73, 4500.05, 0.00, 0.00, -187500.02, 0.00, -138311.27, 0.00, 0.00, 0.00, 0.00, 0.00, 10:50:46.532
74, 7397.02, 0.00, 0.00, -187500.02, 0.00, -137643.31, 0.00, 0.00, -0.07, -0.55, 0.83, 10:50:46.536
75, 6053.57, 0.00, 0.00, -187500.02, 0.00, -137950.09, 0.00, 0.00, 0.00, 0.00, 0.00, 10:50:46.542
76, 2573.96, 0.00, 0.00, -187500.02, 0.00, -138776.36, 0.00, 0.00, 0.00, 0.00, 0.00, 10:50:46.546
77, 3703.42, 0.00, 0.00, -187500.02, 0.00, -138523.50, 0.00, 0.00, 0.00, 0.00, 0.00, 10:50:46.549
78, 7286.29, 0.00, 0.00, -187500.02, 0.00, -137665.27, 0.00, 0.00, 0.00, 0.00, 0.00, 10:50:46.553
79, 6499.57, 0.00, 0.00, -187500.02, 0.00, -137835.61, 0.00, 0.00, 0.00, 0.00, 0.00, 10:50:46.556
80, 3124.04, 0.00, 0.00, -187500.02, 0.00, -138631.59, 0.00, 0.00, 0.00, 0.00, 0.00, 10:50:46.560
81, 2960.80, 0.00, 0.00, -187500.02, 0.00, -138685.55, 0.00, 0.00, 0.00, 0.00, 0.00, 10:50:46.564
82, 6974.33, 0.00, 0.00, -187500.02, 0.00, -137738.39, 0.00, 0.00, 0.00, 0.00, 0.00, 10:50:46.569
83, 6844.24, 0.00, 0.00, -187500.02, 0.00, -137777.94, 0.00, 0.00, -0.07, -0.56, 0.83, 10:50:46.572
84, 3784.24, 0.00, 0.00, -187500.02, 0.00, -138517.98, 0.00, 0.00, 0.00, 0.00, 0.00, 10:50:46.576
85, 2401.87, 0.00, 0.00, -187500.02, 0.00, -138831.91, 0.00, 0.00, 0.00, 0.00, 0.00, 10:50:46.579
86, 6491.51, 0.00, 0.00, -187500.02, 0.00, -137851.61, 0.00, 0.00, 0.00, 0.00, 0.00, 10:50:46.585
87, 7093.73, 0.00, 0.00, -187500.02, 0.00, -137707.08, 0.00, 0.00, 0.00, 0.00, 0.00, 10:50:46.589
88, 4443.59, 0.00, 0.00, -187500.02, 0.00, -138336.55, 0.00, 0.00, 0.00, 0.00, 0.00, 10:50:46.592
89, 2094.56, 0.00, 0.00, -187500.02, 0.00, -138908.95, 0.00, 0.00, 0.00, 0.00, 0.00, 10:50:46.596
90, 5827.01, 0.00, 0.00, -187500.02, 0.00, -138001.91, 0.00, 0.00, 0.00, 0.00, 0.00, 10:50:46.602
91, 7259.20, 0.00, 0.00, -187500.02, 0.00, -137621.81, 0.00, 0.00, 0.00, 0.00, 0.00, 10:50:46.604
92, 5076.06, 0.00, 0.00, -187500.02, 0.00, -138127.03, 0.00, 0.00, 0.00, 0.00, 0.00, 10:50:46.607
93, 2029.29, 0.00, 0.00, -187500.02, 0.00, -138871.58, 0.00, 0.00, -0.07, -0.55, 0.83, 10:50:46.613
94, 5018.95, 0.00, 0.00, -187500.02, 0.00, -138135.59, 0.00, 0.00, 0.00, 0.00, 0.00, 10:50:46.617
95, 7320.60, 0.00, 0.00, -187500.02, 0.00, -137571.78, 0.00, 0.00, 0.00, 0.00, 0.00, 10:50:46.621
96, 5629.47, 0.00, 0.00, -187500.02, 0.00, -137986.05, 0.00, 0.00, 0.00, 0.00, 0.00, 10:50:46.627
97, 2215.88, 0.00, 0.00, -187500.02, 0.00, -138816.44, 0.00, 0.00, 0.00, 0.00, 0.00, 10:50:46.630
98, 4170.01, 0.00, 0.00, -187500.02, 0.00, -138343.70, 0.00, 0.00, 0.00, 0.00, 0.00, 10:50:46.632
99, 7271.60, 0.00, 0.00, -187500.02, 0.00, -137603.03, 0.00, 0.00, 0.00, 0.00, 0.00, 10:50:46.635
100, 6073.62, 0.00, 0.00, -187500.02, 0.00, -137896.05, 0.00, 0.00, 0.00, 0.00, 0.00, 10:50:46.641
101, 2606.64, 0.00, 0.00, -187500.02, 0.00, -138731.94, 0.00, 0.00, 0.00, 0.00, 0.00, 10:50:46.644
102, 3332.89, 0.00, 0.00, -187500.02, 0.00, -138546.44, 0.00, 0.00, 0.00, 0.00, 0.00, 10:50:46.648
103, 7056.00, 0.00, 0.00, -187500.02, 0.00, -137634.39, 0.00, 0.00, -0.07, -0.55, 0.84, 10:50:46.652
104, 6455.97, 0.00, 0.00, -187500.02, 0.00, -137766.36, 0.00, 0.00, 0.00, 0.00, 0.00, 10:50:46.655
105, 3199.05, 0.00, 0.00, -187500.02, 0.00, -138562.64, 0.00, 0.00, 0.00, 0.00, 0.00, 10:50:46.659
106, 2673.13, 0.00, 0.00, -187500.02, 0.00, -138708.78, 0.00, 0.00, 0.00, 0.00, 0.00, 10:50:46.664
107, 6735.27, 0.00, 0.00, -187500.02, 0.00, -137751.11, 0.00, 0.00, 0.00, 0.00, 0.00, 10:50:46.667
108, 6814.20, 0.00, 0.00, -187500.02, 0.00, -137737.59, 0.00, 0.00, 0.00, 0.00, 0.00, 10:50:46.672
109, 3885.54, 0.00, 0.00, -187500.02, 0.00, -138422.31, 0.00, 0.00, 0.00, 0.00, 0.00, 10:50:46.676
110, 2216.98, 0.00, 0.00, -187500.02, 0.00, -138802.09, 0.00, 0.00, 0.00, 0.00, 0.00, 10:50:46.681
111, 6228.67, 0.00, 0.00, -187500.02, 0.00, -137848.44, 0.00, 0.00, 0.00, 0.00, 0.00, 10:50:46.684
112, 7081.50, 0.00, 0.00, -187500.02, 0.00, -137653.91, 0.00, 0.00, 0.00, 0.00, 0.00, 10:50:46.688
113, 4593.53, 0.00, 0.00, -187500.02, 0.00, -138263.39, 0.00, 0.00, -0.07, -0.56, 0.83, 10:50:46.694
114, 2035.48, 0.00, 0.00, -187500.02, 0.00, -138888.19, 0.00, 0.00, 0.00, 0.00, 0.00, 10:50:46.697
115, 5558.05, 0.00, 0.00, -187500.02, 0.00, -138014.50, 0.00, 0.00, 0.00, 0.00, 0.00, 10:50:46.701
116, 7259.04, 0.00, 0.00, -187500.02, 0.00, -137610.30, 0.00, 0.00, 0.00, 0.00, 0.00, 10:50:46.706
117, 5225.50, 0.00, 0.00, -187500.02, 0.00, -138121.45, 0.00, 0.00, 0.00, 0.00, 0.00, 10:50:46.710
118, 2076.88, 0.00, 0.00, -187500.02, 0.00, -138859.88, 0.00, 0.00, 0.00, 0.00, 0.00, 10:50:46.712
119, 4806.97, 0.00, 0.00, -187500.02, 0.00, -138209.80, 0.00, 0.00, 0.00, 0.00, 0.00, 10:50:46.722
120, 7360.61, 0.00, 0.00, -187500.02, 0.00, -137620.06, 0.00, 0.00, 0.00, 0.00, 0.00, 10:50:46.722
121, 5834.54, 0.00, 0.00, -187500.02, 0.00, -137985.50, 0.00, 0.00, 0.00, 0.00, 0.00, 10:50:46.724
122, 2440.68, 0.00, 0.00, -187500.02, 0.00, -138799.95, 0.00, 0.00, 0.00, 0.00, 0.00, 10:50:46.729
123, 4048.79, 0.00, 0.00, -187500.02, 0.00, -138396.25, 0.00, 0.00, -0.08, -0.55, 0.83, 10:50:46.732
124, 7360.83, 0.00, 0.00, -187500.02, 0.00, -137622.13, 0.00, 0.00, 0.00, 0.00, 0.00, 10:50:46.735
125, 6347.52, 0.00, 0.00, -187500.02, 0.00, -137875.14, 0.00, 0.00, 0.00, 0.00, 0.00, 10:50:46.740
126, 2965.16, 0.00, 0.00, -187500.02, 0.00, -138668.70, 0.00, 0.00, 0.00, 0.00, 0.00, 10:50:46.744
127, 3315.99, 0.00, 0.00, -187500.02, 0.00, -138572.08, 0.00, 0.00, 0.00, 0.00, 0.00, 10:50:46.747
128, 7141.29, 0.00, 0.00, -187500.02, 0.00, -137657.73, 0.00, 0.00, 0.00, 0.00, 0.00, 10:50:46.751
129, 6744.21, 0.00, 0.00, -187500.02, 0.00, -137763.72, 0.00, 0.00, 0.00, 0.00, 0.00, 10:50:46.756
130, 3582.63, 0.00, 0.00, -187500.02, 0.00, -138510.48, 0.00, 0.00, 0.00, 0.00, 0.00, 10:50:46.761
131, 2695.58, 0.00, 0.00, -187500.02, 0.00, -138719.66, 0.00, 0.00, 0.00, 0.00, 0.00, 10:50:46.763
132, 6715.51, 0.00, 0.00, -187500.02, 0.00, -137739.78, 0.00, 0.00, -0.07, -0.56, 0.83, 10:50:46.767
133, 7015.12, 0.00, 0.00, -187500.02, 0.00, -137669.91, 0.00, 0.00, 0.00, 0.00, 0.00, 10:50:46.773
134, 4243.88, 0.00, 0.00, -187500.02, 0.00, -138344.83, 0.00, 0.00, 0.00, 0.00, 0.00, 10:50:46.778
135, 2302.36, 0.00, 0.00, -187500.02, 0.00, -138836.69, 0.00, 0.00, 0.00, 0.00, 0.00, 10:50:46.781
136, 6133.01, 0.00, 0.00, -187500.02, 0.00, -137911.17, 0.00, 0.00, 0.00, 0.00, 0.00, 10:50:46.785
137, 7209.73, 0.00, 0.00, -187500.02, 0.00, -137655.42, 0.00, 0.00, 0.00, 0.00, 0.00, 10:50:46.789
138, 4869.08, 0.00, 0.00, -187500.02, 0.00, -138195.41, 0.00, 0.00, 0.00, 0.00, 0.00, 10:50:46.794
139, 2125.63, 0.00, 0.00, -187500.02, 0.00, -138872.59, 0.00, 0.00, 0.00, 0.00, 0.00, 10:50:46.796
140, 5408.63, 0.00, 0.00, -187500.02, 0.00, -138092.89, 0.00, 0.00, 0.00, 0.00, 0.00, 10:50:46.800
141, 7328.82, 0.00, 0.00, -187500.02, 0.00, -137619.17, 0.00, 0.00, 0.00, 0.00, 0.00, 10:50:46.804
142, 5469.11, 0.00, 0.00, -187500.02, 0.00, -138082.52, 0.00, 0.00, -0.08, -0.56, 0.84, 10:50:46.807
143, 2234.77, 0.00, 0.00, -187500.02, 0.00, -138868.41, 0.00, 0.00, 0.00, 0.00, 0.00, 10:50:46.812
144, 4590.22, 0.00, 0.00, -187500.02, 0.00, -138280.72, 0.00, 0.00, 0.00, 0.00, 0.00, 10:50:46.817
145, 7341.97, 0.00, 0.00, -187500.02, 0.00, -137611.55, 0.00, 0.00, 0.00, 0.00, 0.00, 10:50:46.819
146, 5945.18, 0.00, 0.00, -187500.02, 0.00, -137911.08, 0.00, 0.00, 0.00, 0.00, 0.00, 10:50:46.823
147, 2541.42, 0.00, 0.00, -187500.02, 0.00, -138740.67, 0.00, 0.00, 0.00, 0.00, 0.00, 10:50:46.827
148, 3744.25, 0.00, 0.00, -187500.02, 0.00, -138446.80, 0.00, 0.00, 0.00, 0.00, 0.00, 10:50:46.832
149, 7187.40, 0.00, 0.00, -187500.02, 0.00, -137629.91, 0.00, 0.00, 0.00, 0.00, 0.00, 10:50:46.835
150, 6346.46, 0.00, 0.00, -187500.02, 0.00, -137822.45, 0.00, 0.00, 0.00, 0.00, 0.00, 10:50:46.839
151, 3037.69, 0.00, 0.00, -187500.02, 0.00, -138619.14, 0.00, 0.00, 0.00, 0.00, 0.00, 10:50:46.844
152, 3006.89, 0.00, 0.00, -187500.02, 0.00, -138629.16, 0.00, 0.00, -0.08, -0.56, 0.83, 10:50:46.848
153, 6881.21, 0.00, 0.00, -187500.02, 0.00, -137703.81, 0.00, 0.00, 0.00, 0.00, 0.00, 10:50:46.852
154, 6685.81, 0.00, 0.00, -187500.02, 0.00, -137776.38, 0.00, 0.00, 0.00, 0.00, 0.00, 10:50:46.856
155, 3649.86, 0.00, 0.00, -187500.02, 0.00, -138472.53, 0.00, 0.00, 0.00, 0.00, 0.00, 10:50:46.859
156, 2437.52, 0.00, 0.00, -187500.02, 0.00, -138752.92, 0.00, 0.00, 0.00, 0.00, 0.00, 10:50:46.864
157, 6453.86, 0.00, 0.00, -187500.02, 0.00, -137796.64, 0.00, 0.00, 0.00, 0.00, 0.00, 10:50:46.869
158, 6975.11, 0.00, 0.00, -187500.02, 0.00, -137680.81, 0.00, 0.00, 0.00, 0.00, 0.00, 10:50:46.873
159, 4333.96, 0.00, 0.00, -187500.02, 0.00, -138309.34, 0.00, 0.00, 0.00, 0.00, 0.00, 10:50:46.877
160, 2134.52, 0.00, 0.00, -187500.02, 0.00, -138830.92, 0.00, 0.00, 0.00, 0.00, 0.00, 10:50:46.879
161, 5848.53, 0.00, 0.00, -187500.02, 0.00, -137939.52, 0.00, 0.00, 0.00, 0.00, 0.00, 10:50:46.884
162, 7181.41, 0.00, 0.00, -187500.02, 0.00, -137613.22, 0.00, 0.00, -0.09, -0.56, 0.83, 10:50:46.888
163, 4992.93, 0.00, 0.00, -187500.02, 0.00, -138128.33, 0.00, 0.00, 0.00, 0.00, 0.00, 10:50:46.891
164, 2067.74, 0.00, 0.00, -187500.02, 0.00, -138819.45, 0.00, 0.00, 0.00, 0.00, 0.00, 10:50:46.896
165, 5105.07, 0.00, 0.00, -187500.02, 0.00, -138077.27, 0.00, 0.00, 0.00, 0.00, 0.00, 10:50:46.900
166, 7289.64, 0.00, 0.00, -187500.02, 0.00, -137551.83, 0.00, 0.00, 0.00, 0.00, 0.00, 10:50:46.903
167, 5584.45, 0.00, 0.00, -187500.02, 0.00, -137965.11, 0.00, 0.00, 0.00, 0.00, 0.00, 10:50:46.908
168, 2296.91, 0.00, 0.00, -187500.02, 0.00, -138784.75, 0.00, 0.00, 0.00, 0.00, 0.00, 10:50:46.911
169, 4328.06, 0.00, 0.00, -187500.02, 0.00, -138274.86, 0.00, 0.00, 0.00, 0.00, 0.00, 10:50:46.916
170, 7308.75, 0.00, 0.00, -187500.02, 0.00, -137555.00, 0.00, 0.00, 0.00, 0.00, 0.00, 10:50:46.919
171, 6102.50, 0.00, 0.00, -187500.02, 0.00, -137842.95, 0.00, 0.00, -0.07, -0.55, 0.84, 10:50:46.924
172, 2721.44, 0.00, 0.00, -187500.02, 0.00, -138649.23, 0.00, 0.00, 0.00, 0.00, 0.00, 10:50:46.929
173, 3572.66, 0.00, 0.00, -187500.02, 0.00, -138444.55, 0.00, 0.00, 0.00, 0.00, 0.00, 10:50:46.932
174, 7181.32, 0.00, 0.00, -187500.02, 0.00, -137558.42, 0.00, 0.00, 0.00, 0.00, 0.00, 10:50:46.937
175, 6555.95, 0.00, 0.00, -187500.02, 0.00, -137730.81, 0.00, 0.00, 0.00, 0.00, 0.00, 10:50:46.941
176, 3334.01, 0.00, 0.00, -187500.02, 0.00, -138521.22, 0.00, 0.00, 0.00, 0.00, 0.00, 10:50:46.945
177, 2946.32, 0.00, 0.00, -187500.02, 0.00, -138615.39, 0.00, 0.00, 0.00, 0.00, 0.00, 10:50:46.949
178, 6891.69, 0.00, 0.00, -187500.02, 0.00, -137677.23, 0.00, 0.00, 0.00, 0.00, 0.00, 10:50:46.953
179, 6864.80, 0.00, 0.00, -187500.02, 0.00, -137672.53, 0.00, 0.00, 0.00, 0.00, 0.00, 10:50:46.957
180, 3949.20, 0.00, 0.00, -187500.02, 0.00, -138376.58, 0.00, 0.00, 0.00, 0.00, 0.00, 10:50:46.959
181, 2436.43, 0.00, 0.00, -187500.02, 0.00, -138725.69, 0.00, 0.00, -0.08, -0.57, 0.82, 10:50:46.964
182, 6351.31, 0.00, 0.00, -187500.02, 0.00, -137775.52, 0.00, 0.00, 0.00, 0.00, 0.00, 10:50:46.968
183, 7077.05, 0.00, 0.00, -187500.02, 0.00, -137607.30, 0.00, 0.00, 0.00, 0.00, 0.00, 10:50:46.971
184, 4586.76, 0.00, 0.00, -187500.02, 0.00, -138237.47, 0.00, 0.00, 0.00, 0.00, 0.00, 10:50:46.976
185, 2159.87, 0.00, 0.00, -187500.02, 0.00, -138799.34, 0.00, 0.00, 0.00, 0.00, 0.00, 10:50:46.980
186, 5686.33, 0.00, 0.00, -187500.02, 0.00, -137978.03, 0.00, 0.00, 0.00, 0.00, 0.00, 10:50:46.983
187, 7233.00, 0.00, 0.00, -187500.02, 0.00, -137621.16, 0.00, 0.00, 0.00, 0.00, 0.00, 10:50:46.987
188, 5171.48, 0.00, 0.00, -187500.02, 0.00, -138112.14, 0.00, 0.00, 0.00, 0.00, 0.00, 10:50:46.990
189, 2128.18, 0.00, 0.00, -187500.02, 0.00, -138818.50, 0.00, 0.00, 0.00, 0.00, 0.00, 10:50:46.996
190, 4874.96, 0.00, 0.00, -187500.02, 0.00, -138142.97, 0.00, 0.00, 0.00, 0.00, 0.00, 10:50:47.000
191, 7248.20, 0.00, 0.00, -187500.02, 0.00, -137557.33, 0.00, 0.00, -0.08, -0.56, 0.83, 10:50:47.004
192, 5667.17, 0.00, 0.00, -187500.02, 0.00, -137927.73, 0.00, 0.00, 0.00, 0.00, 0.00, 10:50:47.007
193, 2334.95, 0.00, 0.00, -187500.02, 0.00, -138721.92, 0.00, 0.00, 0.00, 0.00, 0.00, 10:50:47.012
194, 4033.95, 0.00, 0.00, -187500.02, 0.00, -138321.28, 0.00, 0.00, 0.00, 0.00, 0.00, 10:50:47.017
195, 7174.93, 0.00, 0.00, -187500.02, 0.00, -137578.61, 0.00, 0.00, 0.00, 0.00, 0.00, 10:50:47.021
196, 6101.33, 0.00, 0.00, -187500.02, 0.00, -137834.69, 0.00, 0.00, 0.00, 0.00, 0.00, 10:50:47.025
197, 2758.41, 0.00, 0.00, -187500.02, 0.00, -138654.92, 0.00, 0.00, 0.00, 0.00, 0.00, 10:50:47.028
198, 3228.91, 0.00, 0.00, -187500.02, 0.00, -138538.39, 0.00, 0.00, 0.00, 0.00, 0.00, 10:50:47.033
199, 6920.68, 0.00, 0.00, -187500.02, 0.00, -137648.31, 0.00, 0.00, 0.00, 0.00, 0.00, 10:50:47.037
200, 6430.28, 0.00, 0.00, -187500.02, 0.00, -137784.11, 0.00, 0.00, 0.00, 0.00, 0.00, 10:50:47.040
201, 3284.83, 0.00, 0.00, -187500.02, 0.00, -138521.09, 0.00, 0.00, -0.08, -0.56, 0.83, 10:50:47.043
202, 2533.75, 0.00, 0.00, -187500.02, 0.00, -138679.30, 0.00, 0.00, 0.00, 0.00, 0.00, 10:50:47.047
203, 6486.79, 0.00, 0.00, -187500.02, 0.00, -137727.33, 0.00, 0.00, 0.00, 0.00, 0.00, 10:50:47.052
204, 6676.76, 0.00, 0.00, -187500.02, 0.00, -137705.86, 0.00, 0.00, 0.00, 0.00, 0.00, 10:50:47.055
205, 3897.00, 0.00, 0.00, -187500.02, 0.00, -138388.42, 0.00, 0.00, 0.00, 0.00, 0.00, 10:50:47.060
206, 2091.65, 0.00, 0.00, -187500.02, 0.00, -138807.06, 0.00, 0.00, 0.00, 0.00, 0.00, 10:50:47.063
207, 5944.54, 0.00, 0.00, -187500.02, 0.00, -137873.63, 0.00, 0.00, 0.00, 0.00, 0.00, 10:50:47.067
208, 6913.37, 0.00, 0.00, -187500.02, 0.00, -137645.50, 0.00, 0.00, 0.00, 0.00, 0.00, 10:50:47.070
209, 4550.84, 0.00, 0.00, -187500.02, 0.00, -138220.70, 0.00, 0.00, 0.00, 0.00, 0.00, 10:50:47.075
210, 1940.18, 0.00, 0.00, -187500.02, 0.00, -138854.34, 0.00, 0.00, 0.00, 0.00, 0.00, 10:50:47.079
211, 5277.52, 0.00, 0.00, -187500.02, 0.00, -138061.16, 0.00, 0.00, -0.08, -0.57, 0.84, 10:50:47.084
212, 7072.09, 0.00, 0.00, -187500.02, 0.00, -137644.86, 0.00, 0.00, 0.00, 0.00, 0.00, 10:50:47.087
213, 5167.32, 0.00, 0.00, -187500.02, 0.00, -138090.19, 0.00, 0.00, 0.00, 0.00, 0.00, 10:50:47.091
214, 2045.39, 0.00, 0.00, -187500.02, 0.00, -138868.70, 0.00, 0.00, 0.00, 0.00, 0.00, 10:50:47.096
215, 4517.27, 0.00, 0.00, -187500.02, 0.00, -138291.72, 0.00, 0.00, 0.00, 0.00, 0.00, 10:50:47.101
216, 7145.76, 0.00, 0.00, -187500.02, 0.00, -137658.00, 0.00, 0.00, 0.00, 0.00, 0.00, 10:50:47.105
217, 5706.87, 0.00, 0.00, -187500.02, 0.00, -137995.33, 0.00, 0.00, 0.00, 0.00, 0.00, 10:50:47.109
218, 2351.25, 0.00, 0.00, -187500.02, 0.00, -138776.08, 0.00, 0.00, 0.00, 0.00, 0.00, 10:50:47.112
219, 3702.21, 0.00, 0.00, -187500.02, 0.00, -138428.84, 0.00, 0.00, 0.00, 0.00, 0.00, 10:50:47.116
220, 7047.80, 0.00, 0.00, -187500.02, 0.00, -137622.75, 0.00, 0.00, -0.08, -0.56, 0.82, 10:50:47.121
221, 6159.63, 0.00, 0.00, -187500.02, 0.00, -137829.08, 0.00, 0.00, 0.00, 0.00, 0.00, 10:50:47.124
222, 2884.89, 0.00, 0.00, -187500.02, 0.00, -138613.09, 0.00, 0.00, 0.00, 0.00, 0.00, 10:50:47.127
223, 3015.67, 0.00, 0.00, -187500.02, 0.00, -138593.80, 0.00, 0.00, 0.00, 0.00, 0.00, 10:50:47.131
224, 6854.63, 0.00, 0.00, -187500.02, 0.00, -137661.39, 0.00, 0.00, 0.00, 0.00, 0.00, 10:50:47.134
225, 6594.28, 0.00, 0.00, -187500.02, 0.00, -137757.58, 0.00, 0.00, 0.00, 0.00, 0.00, 10:50:47.139
226, 3574.51, 0.00, 0.00, -187500.02, 0.00, -138497.64, 0.00, 0.00, 0.00, 0.00, 0.00, 10:50:47.143
227, 2491.79, 0.00, 0.00, -187500.02, 0.00, -138765.39, 0.00, 0.00, 0.00, 0.00, 0.00, 10:50:47.147
228, 6469.02, 0.00, 0.00, -187500.02, 0.00, -137799.91, 0.00, 0.00, 0.00, 0.00, 0.00, 10:50:47.151
229, 6888.38, 0.00, 0.00, -187500.02, 0.00, -137695.66, 0.00, 0.00, 0.00, 0.00, 0.00, 10:50:47.155
230, 4190.59, 0.00, 0.00, -187500.02, 0.00, -138331.39, 0.00, 0.00, -0.08, -0.56, 0.83, 10:50:47.159
231, 2016.73, 0.00, 0.00, -187500.02, 0.00, -138833.30, 0.00, 0.00, 0.00, 0.00, 0.00, 10:50:47.163
232, 5754.70, 0.00, 0.00, -187500.02, 0.00, -137914.66, 0.00, 0.00, 0.00, 0.00, 0.00, 10:50:47.168
233, 7024.17, 0.00, 0.00, -187500.02, 0.00, -137602.78, 0.00, 0.00, 0.00, 0.00, 0.00, 10:50:47.172
234, 4793.42, 0.00, 0.00, -187500.02, 0.00, -138151.44, 0.00, 0.00, 0.00, 0.00, 0.00, 10:50:47.176
235, 1929.38, 0.00, 0.00, -187500.02, 0.00, -138847.11, 0.00, 0.00, 0.00, 0.00, 0.00, 10:50:47.180
236, 5039.74, 0.00, 0.00, -187500.02, 0.00, -138131.36, 0.00, 0.00, 0.00, 0.00, 0.00, 10:50:47.184
237, 7138.14, 0.00, 0.00, -187500.02, 0.00, -137622.95, 0.00, 0.00, 0.00, 0.00, 0.00, 10:50:47.188
238, 5394.50, 0.00, 0.00, -187500.02, 0.00, -138048.30, 0.00, 0.00, 0.00, 0.00, 0.00, 10:50:47.193
239, 2117.13, 0.00, 0.00, -187500.02, 0.00, -138856.11, 0.00, 0.00, 0.00, 0.00, 0.00, 10:50:47.196
240, 4230.25, 0.00, 0.00, -187500.02, 0.00, -138319.34, 0.00, 0.00, -0.09, -0.56, 0.83, 10:50:47.200
241, 7126.61, 0.00, 0.00, -187500.02, 0.00, -137591.36, 0.00, 0.00, 0.00, 0.00, 0.00, 10:50:47.203
242, 5876.92, 0.00, 0.00, -187500.02, 0.00, -137884.23, 0.00, 0.00, 0.00, 0.00, 0.00, 10:50:47.207
243, 2491.91, 0.00, 0.00, -187500.02, 0.00, -138719.09, 0.00, 0.00, 0.00, 0.00, 0.00, 10:50:47.211
244, 3414.63, 0.00, 0.00, -187500.02, 0.00, -138489.81, 0.00, 0.00, 0.00, 0.00, 0.00, 10:50:47.215
245, 6969.36, 0.00, 0.00, -187500.02, 0.00, -137618.17, 0.00, 0.00, 0.00, 0.00, 0.00, 10:50:47.220
246, 6281.82, 0.00, 0.00, -187500.02, 0.00, -137805.19, 0.00, 0.00, 0.00, 0.00, 0.00, 10:50:47.223
247, 3030.25, 0.00, 0.00, -187500.02, 0.00, -138604.33, 0.00, 0.00, 0.00, 0.00, 0.00, 10:50:47.227
248, 2719.72, 0.00, 0.00, -187500.02, 0.00, -138680.34, 0.00, 0.00, 0.00, 0.00, 0.00, 10:50:47.230
249, 6658.27, 0.00, 0.00, -187500.02, 0.00, -137734.58, 0.00, 0.00, 0.00, 0.00, 0.00, 10:50:47.236
250, 6596.92, 0.00, 0.00, -187500.02, 0.00, -137751.89, 0.00, 0.00, -0.08, -0.56, 0.83, 10:50:47.239
251, 3639.47, 0.00, 0.00, -187500.02, 0.00, -138464.02, 0.00, 0.00, 0.00, 0.00, 0.00, 10:50:47.243
252, 2154.69, 0.00, 0.00, -187500.02, 0.00, -138805.69, 0.00, 0.00, 0.00, 0.00, 0.00, 10:50:47.247
253, 6134.32, 0.00, 0.00, -187500.02, 0.00, -137869.64, 0.00, 0.00, 0.00, 0.00, 0.00, 10:50:47.252
254, 6818.65, 0.00, 0.00, -187500.02, 0.00, -137711.95, 0.00, 0.00, 0.00, 0.00, 0.00, 10:50:47.256
255, 4282.42, 0.00, 0.00, -187500.02, 0.00, -138340.47, 0.00, 0.00, 0.00, 0.00, 0.00, 10:50:47.260
0, 1895.70, 0.00, 0.00, -187500.02, 0.00, -138937.91, 0.00, 0.00, 0.00, 0.00, 0.00, 10:50:47.264
1, 5483.67, 0.00, 0.00, -187500.02, 0.00, -138071.06, 0.00, 0.00, 0.00, 0.00, 0.00, 10:50:47.268
2, 7008.57, 0.00, 0.00, -187500.02, 0.00, -137712.98, 0.00, 0.00, 0.00, 0.00, 0.00, 10:50:47.272
3, 4920.42, 0.00, 0.00, -187500.02, 0.00, -138211.25, 0.00, 0.00, 0.00, 0.00, 0.00, 10:50:47.277
4, 1893.55, 0.00, 0.00, -187500.02, 0.00, -138930.23, 0.00, 0.00, -0.08, -0.56, 0.83, 10:50:47.280
5, 4745.79, 0.00, 0.00, -187500.02, 0.00, -138258.97, 0.00, 0.00, 0.00, 0.00, 0.00, 10:50:47.283
6, 7103.56, 0.00, 0.00, -187500.02, 0.00, -137671.03, 0.00, 0.00, 0.00, 0.00, 0.00, 10:50:47.287
7, 5493.16, 0.00, 0.00, -187500.02, 0.00, -138036.33, 0.00, 0.00, 0.00, 0.00, 0.00, 10:50:47.291
8, 2144.49, 0.00, 0.00, -187500.02, 0.00, -138848.72, 0.00, 0.00, 0.00, 0.00, 0.00, 10:50:47.295
9, 3906.15, 0.00, 0.00, -187500.02, 0.00, -138424.59, 0.00, 0.00, 0.00, 0.00, 0.00, 10:50:47.299
10, 7032.93, 0.00, 0.00, -187500.02, 0.00, -137655.69, 0.00, 0.00, 0.00, 0.00, 0.00, 10:50:47.303
11, 5940.38, 0.00, 0.00, -187500.02, 0.00, -137922.69, 0.00, 0.00, 0.00, 0.00, 0.00, 10:50:47.306
12, 2566.05, 0.00, 0.00, -187500.02, 0.00, -138757.33, 0.00, 0.00, 0.00, 0.00, 0.00, 10:50:47.310
13, 3125.49, 0.00, 0.00, -187500.02, 0.00, -138600.08, 0.00, 0.00, -0.08, -0.57, 0.83, 10:50:47.315
14, 6855.03, 0.00, 0.00, -187500.02, 0.00, -137712.17, 0.00, 0.00, 0.00, 0.00, 0.00, 10:50:47.319
15, 6350.49, 0.00, 0.00, -187500.02, 0.00, -137838.98, 0.00, 0.00, 0.00, 0.00, 0.00, 10:50:47.323
16, 3188.12, 0.00, 0.00, -187500.02, 0.00, -138597.03, 0.00, 0.00, 0.00, 0.00, 0.00, 10:50:47.328
17, 2522.95, 0.00, 0.00, -187500.02, 0.00, -138746.80, 0.00, 0.00, 0.00, 0.00, 0.00, 10:50:47.331
18, 6543.83, 0.00, 0.00, -187500.02, 0.00, -137786.98, 0.00, 0.00, 0.00, 0.00, 0.00, 10:50:47.335
19, 6722.13, 0.00, 0.00, -187500.02, 0.00, -137733.44, 0.00, 0.00, 0.00, 0.00, 0.00, 10:50:47.339
20, 3891.26, 0.00, 0.00, -187500.02, 0.00, -138386.28, 0.00, 0.00, 0.00, 0.00, 0.00, 10:50:47.345
21, 2127.06, 0.00, 0.00, -187500.02, 0.00, -138800.89, 0.00, 0.00, 0.00, 0.00, 0.00, 10:50:47.348
22, 6037.32, 0.00, 0.00, -187500.02, 0.00, -137879.95, 0.00, 0.00, 0.00, 0.00, 0.00, 10:50:47.352
23, 7002.51, 0.00, 0.00, -187500.02, 0.00, -137679.20, 0.00, 0.00, -0.08, -0.57, 0.83, 10:50:47.357
24, 4605.78, 0.00, 0.00, -187500.02, 0.00, -138274.80, 0.00, 0.00, 0.00, 0.00, 0.00, 10:50:47.362
25, 1987.54, 0.00, 0.00, -187500.02, 0.00, -138913.30, 0.00, 0.00, 0.00, 0.00, 0.00, 10:50:47.364
26, 5390.53, 0.00, 0.00, -187500.02, 0.00, -138114.36, 0.00, 0.00, 0.00, 0.00, 0.00, 10:50:47.368
27, 7142.10, 0.00, 0.00, -187500.02, 0.00, -137646.39, 0.00, 0.00, 0.00, 0.00, 0.00, 10:50:47.370
28, 5197.03, 0.00, 0.00, -187500.02, 0.00, -138098.70, 0.00, 0.00, 0.00, 0.00, 0.00, 10:50:47.374
29, 2042.44, 0.00, 0.00, -187500.02, 0.00, -138879.86, 0.00, 0.00, 0.00, 0.00, 0.00, 10:50:47.379
30, 4583.02, 0.00, 0.00, -187500.02, 0.00, -138264.89, 0.00, 0.00, 0.00, 0.00, 0.00, 10:50:47.384
31, 7186.40, 0.00, 0.00, -187500.02, 0.00, -137622.17, 0.00, 0.00, 0.00, 0.00, 0.00, 10:50:47.386
32, 5732.17, 0.00, 0.00, -187500.02, 0.00, -137978.05, 0.00, 0.00, 0.00, 0.00, 0.00, 10:50:47.390
33, 2364.66, 0.00, 0.00, -187500.02, 0.00, -138808.86, 0.00, 0.00, -0.08, -0.56, 0.83, 10:50:47.394
34, 3790.65, 0.00, 0.00, -187500.02, 0.00, -138485.59, 0.00, 0.00, 0.00, 0.00, 0.00, 10:50:47.399
35, 7132.49, 0.00, 0.00, -187500.02, 0.00, -137685.31, 0.00, 0.00, 0.00, 0.00, 0.00, 10:50:47.402
36, 6191.08, 0.00, 0.00, -187500.02, 0.00, -137879.50, 0.00, 0.00, 0.00, 0.00, 0.00, 10:50:47.407
37, 2855.17, 0.00, 0.00, -187500.02, 0.00, -138682.42, 0.00, 0.00, 0.00, 0.00, 0.00, 10:50:47.411
38, 3038.07, 0.00, 0.00, -187500.02, 0.00, -138658.17, 0.00, 0.00, 0.00, 0.00, 0.00, 10:50:47.415
39, 6875.71, 0.00, 0.00, -187500.02, 0.00, -137714.95, 0.00, 0.00, 0.00, 0.00, 0.00, 10:50:47.419
40, 6553.93, 0.00, 0.00, -187500.02, 0.00, -137789.14, 0.00, 0.00, 0.00, 0.00, 0.00, 10:50:47.424
41, 3460.14, 0.00, 0.00, -187500.02, 0.00, -138540.48, 0.00, 0.00, 0.00, 0.00, 0.00, 10:50:47.428
42, 2423.69, 0.00, 0.00, -187500.02, 0.00, -138789.98, 0.00, 0.00, 0.00, 0.00, 0.00, 10:50:47.431
43, 6446.33, 0.00, 0.00, -187500.02, 0.00, -137833.23, 0.00, 0.00, -0.07, -0.56, 0.83, 10:50:47.436
44, 6818.38, 0.00, 0.00, -187500.02, 0.00, -137738.00, 0.00, 0.00, 0.00, 0.00, 0.00, 10:50:47.441
45, 4099.00, 0.00, 0.00, -187500.02, 0.00, -138374.84, 0.00, 0.00, 0.00, 0.00, 0.00, 10:50:47.444
46, 2027.17, 0.00, 0.00, -187500.02, 0.00, -138875.61, 0.00, 0.00, 0.00, 0.00, 0.00, 10:50:47.447
47, 5836.33, 0.00, 0.00, -187500.02, 0.00, -137987.55, 0.00, 0.00, 0.00, 0.00, 0.00, 10:50:47.450
48, 7019.70, 0.00, 0.00, -187500.02, 0.00, -137700.88, 0.00, 0.00, 0.00, 0.00, 0.00, 10:50:47.454
49, 4739.17, 0.00, 0.00, -187500.02, 0.00, -138255.06, 0.00, 0.00, 0.00, 0.00, 0.00, 10:50:47.459
50, 1904.93, 0.00, 0.00, -187500.02, 0.00, -138939.88, 0.00, 0.00, 0.00, 0.00, 0.00, 10:50:47.464
51, 5082.14, 0.00, 0.00, -187500.02, 0.00, -138166.64, 0.00, 0.00, 0.00, 0.00, 0.00, 10:50:47.467
52, 7132.42, 0.00, 0.00, -187500.02, 0.00, -137698.30, 0.00, 0.00, -0.08, -0.56, 0.84, 10:50:47.471
53, 5343.34, 0.00, 0.00, -187500.02, 0.00, -138159.45, 0.00, 0.00, 0.00, 0.00, 0.00, 10:50:47.476
54, 2083.23, 0.00, 0.00, -187500.02, 0.00, -138944.72, 0.00, 0.00, 0.00, 0.00, 0.00, 10:50:47.479
55, 4318.07, 0.00, 0.00, -187500.02, 0.00, -138391.88, 0.00, 0.00, 0.00, 0.00, 0.00, 10:50:47.482
56, 7158.39, 0.00, 0.00, -187500.02, 0.00, -137698.41, 0.00, 0.00, 0.00, 0.00, 0.00, 10:50:47.486
57, 5851.80, 0.00, 0.00, -187500.02, 0.00, -137984.83, 0.00, 0.00, 0.00, 0.00, 0.00, 10:50:47.491
58, 2465.49, 0.00, 0.00, -187500.02, 0.00, -138797.83, 0.00, 0.00, 0.00, 0.00, 0.00, 10:50:47.496
59, 3533.92, 0.00, 0.00, -187500.02, 0.00, -138557.45, 0.00, 0.00, 0.00, 0.00, 0.00, 10:50:47.499
60, 7064.83, 0.00, 0.00, -187500.02, 0.00, -137705.94, 0.00, 0.00, 0.00, 0.00, 0.00, 10:50:47.503
61, 6312.94, 0.00, 0.00, -187500.02, 0.00, -137885.47, 0.00, 0.00, 0.00, 0.00, 0.00, 10:50:47.507
62, 3026.20, 0.00, 0.00, -187500.02, 0.00, -138663.98, 0.00, 0.00, -0.08, -0.55, 0.83, 10:50:47.511
63, 2853.49, 0.00, 0.00, -187500.02, 0.00, -138739.70, 0.00, 0.00, 0.00, 0.00, 0.00, 10:50:47.516
64, 6800.27, 0.00, 0.00, -187500.02, 0.00, -137784.08, 0.00, 0.00, 0.00, 0.00, 0.00, 10:50:47.521
65, 6704.20, 0.00, 0.00, -187500.02, 0.00, -137830.33, 0.00, 0.00, 0.00, 0.00, 0.00, 10:50:47.523
66, 3734.46, 0.00, 0.00, -187500.02, 0.00, -138551.50, 0.00, 0.00, 0.00, 0.00, 0.00, 10:50:47.527
67, 2366.29, 0.00, 0.00, -187500.02, 0.00, -138871.31, 0.00, 0.00, 0.00, 0.00, 0.00, 10:50:47.530
68, 6369.82, 0.00, 0.00, -187500.02, 0.00, -137894.70, 0.00, 0.00, 0.00, 0.00, 0.00, 10:50:47.534
69, 7000.10, 0.00, 0.00, -187500.02, 0.00, -137726.17, 0.00, 0.00, 0.00, 0.00, 0.00, 10:50:47.539
70, 4429.33, 0.00, 0.00, -187500.02, 0.00, -138349.97, 0.00, 0.00, 0.00, 0.00, 0.00, 10:50:47.542
71, 2107.34, 0.00, 0.00, -187500.02, 0.00, -138914.19, 0.00, 0.00, 0.00, 0.00, 0.00, 10:50:47.547
72, 5794.35, 0.00, 0.00, -187500.02, 0.00, -138056.38, 0.00, 0.00, -0.08, -0.55, 0.82, 10:50:47.551
73, 7257.07, 0.00, 0.00, -187500.02, 0.00, -137708.06, 0.00, 0.00, 0.00, 0.00, 0.00, 10:50:47.553
74, 5118.97, 0.00, 0.00, -187500.02, 0.00, -138213.22, 0.00, 0.00, 0.00, 0.00, 0.00, 10:50:47.558
75, 2113.18, 0.00, 0.00, -187500.02, 0.00, -138924.80, 0.00, 0.00, 0.00, 0.00, 0.00, 10:50:47.563
76, 5029.03, 0.00, 0.00, -187500.02, 0.00, -138219.77, 0.00, 0.00, 0.00, 0.00, 0.00, 10:50:47.566
77, 7336.11, 0.00, 0.00, -187500.02, 0.00, -137666.72, 0.00, 0.00, 0.00, 0.00, 0.00, 10:50:47.571
78, 5683.62, 0.00, 0.00, -187500.02, 0.00, -138066.05, 0.00, 0.00, 0.00, 0.00, 0.00, 10:50:47.577
79, 2336.00, 0.00, 0.00, -187500.02, 0.00, -138887.30, 0.00, 0.00, 0.00, 0.00, 0.00, 10:50:47.579
80, 4208.30, 0.00, 0.00, -187500.02, 0.00, -138436.84, 0.00, 0.00, 0.00, 0.00, 0.00, 10:50:47.584
81, 7295.90, 0.00, 0.00, -187500.02, 0.00, -137690.94, 0.00, 0.00, 0.00, 0.00, 0.00, 10:50:47.588
82, 6149.99, 0.00, 0.00, -187500.02, 0.00, -137960.81, 0.00, 0.00, -0.08, -0.56, 0.82, 10:50:47.591
83, 2760.13, 0.00, 0.00, -187500.02, 0.00, -138795.00, 0.00, 0.00, 0.00, 0.00, 0.00, 10:50:47.596
84, 3426.34, 0.00, 0.00, -187500.02, 0.00, -138640.88, 0.00, 0.00, 0.00, 0.00, 0.00, 10:50:47.599
85, 7113.35, 0.00, 0.00, -187500.02, 0.00, -137745.50, 0.00, 0.00, 0.00, 0.00, 0.00, 10:50:47.604
86, 6547.63, 0.00, 0.00, -187500.02, 0.00, -137896.33, 0.00, 0.00, 0.00, 0.00, 0.00, 10:50:47.608
87, 3341.14, 0.00, 0.00, -187500.02, 0.00, -138684.25, 0.00, 0.00, 0.00, 0.00, 0.00, 10:50:47.611
88, 2761.29, 0.00, 0.00, -187500.02, 0.00, -138826.75, 0.00, 0.00, 0.00, 0.00, 0.00, 10:50:47.615
89, 6753.49, 0.00, 0.00, -187500.02, 0.00, -137845.03, 0.00, 0.00, 0.00, 0.00, 0.00, 10:50:47.618
90, 6851.01, 0.00, 0.00, -187500.02, 0.00, -137820.09, 0.00, 0.00, 0.00, 0.00, 0.00, 10:50:47.622
91, 3986.23, 0.00, 0.00, -187500.02, 0.00, -138534.56, 0.00, 0.00, 0.00, 0.00, 0.00, 10:50:47.627
92, 2281.17, 0.00, 0.00, -187500.02, 0.00, -138943.45, 0.00, 0.00, -0.08, -0.56, 0.83, 10:50:47.630
93, 6216.56, 0.00, 0.00, -187500.02, 0.00, -137990.50, 0.00, 0.00, 0.00, 0.00, 0.00, 10:50:47.635
94, 7079.92, 0.00, 0.00, -187500.02, 0.00, -137779.33, 0.00, 0.00, 0.00, 0.00, 0.00, 10:50:47.637
95, 4625.43, 0.00, 0.00, -187500.02, 0.00, -138372.09, 0.00, 0.00, 0.00, 0.00, 0.00, 10:50:47.643
96, 2049.95, 0.00, 0.00, -187500.02, 0.00, -139000.48, 0.00, 0.00, 0.00, 0.00, 0.00, 10:50:47.647
97, 5495.04, 0.00, 0.00, -187500.02, 0.00, -138160.53, 0.00, 0.00, 0.00, 0.00, 0.00, 10:50:47.650
98, 7191.36, 0.00, 0.00, -187500.02, 0.00, -137749.44, 0.00, 0.00, 0.00, 0.00, 0.00, 10:50:47.654
99, 5204.56, 0.00, 0.00, -187500.02, 0.00, -138245.44, 0.00, 0.00, 0.00, 0.00, 0.00, 10:50:47.658
100, 2046.70, 0.00, 0.00, -187500.02, 0.00, -138998.94, 0.00, 0.00, 0.00, 0.00, 0.00, 10:50:47.662
101, 4679.99, 0.00, 0.00, -187500.02, 0.00, -138353.38, 0.00, 0.00, -0.08, -0.57, 0.83, 10:50:47.668
102, 7236.22, 0.00, 0.00, -187500.02, 0.00, -137746.23, 0.00, 0.00, 0.00, 0.00, 0.00, 10:50:47.671
103, 5735.03, 0.00, 0.00, -187500.02, 0.00, -138111.80, 0.00, 0.00, 0.00, 0.00, 0.00, 10:50:47.675
104, 2369.02, 0.00, 0.00, -187500.02, 0.00, -138947.72, 0.00, 0.00, 0.00, 0.00, 0.00, 10:50:47.680
105, 3890.30, 0.00, 0.00, -187500.02, 0.00, -138571.58, 0.00, 0.00, 0.00, 0.00, 0.00, 10:50:47.685
106, 7167.78, 0.00, 0.00, -187500.02, 0.00, -137738.75, 0.00, 0.00, 0.00, 0.00, 0.00, 10:50:47.688
107, 6191.63, 0.00, 0.00, -187500.02, 0.00, -137967.30, 0.00, 0.00, 0.00, 0.00, 0.00, 10:50:47.690
108, 2848.33, 0.00, 0.00, -187500.02, 0.00, -138783.14, 0.00, 0.00, 0.00, 0.00, 0.00, 10:50:47.694
109, 3157.94, 0.00, 0.00, -187500.02, 0.00, -138754.95, 0.00, 0.00, 0.00, 0.00, 0.00, 10:50:47.699
110, 6978.73, 0.00, 0.00, -187500.02, 0.00, -137838.48, 0.00, 0.00, 0.00, 0.00, 0.00, 10:50:47.703
111, 6584.15, 0.00, 0.00, -187500.02, 0.00, -137917.61, 0.00, 0.00, -0.08, -0.56, 0.83, 10:50:47.706
112, 3480.66, 0.00, 0.00, -187500.02, 0.00, -138678.42, 0.00, 0.00, 0.00, 0.00, 0.00, 10:50:47.711
113, 2539.45, 0.00, 0.00, -187500.02, 0.00, -138897.11, 0.00, 0.00, 0.00, 0.00, 0.00, 10:50:47.713
114, 6587.86, 0.00, 0.00, -187500.02, 0.00, -137949.63, 0.00, 0.00, 0.00, 0.00, 0.00, 10:50:47.717
115, 6923.07, 0.00, 0.00, -187500.02, 0.00, -137886.61, 0.00, 0.00, 0.00, 0.00, 0.00, 10:50:47.722
116, 4174.14, 0.00, 0.00, -187500.02, 0.00, -138544.53, 0.00, 0.00, 0.00, 0.00, 0.00, 10:50:47.726
117, 2174.80, 0.00, 0.00, -187500.02, 0.00, -139001.02, 0.00, 0.00, 0.00, 0.00, 0.00, 10:50:47.729
118, 6026.95, 0.00, 0.00, -187500.02, 0.00, -138068.48, 0.00, 0.00, 0.00, 0.00, 0.00, 10:50:47.735
119, 7177.68, 0.00, 0.00, -187500.02, 0.00, -137811.03, 0.00, 0.00, 0.00, 0.00, 0.00, 10:50:47.739
120, 4878.80, 0.00, 0.00, -187500.02, 0.00, -138363.19, 0.00, 0.00, 0.00, 0.00, 0.00, 10:50:47.742
121, 2095.83, 0.00, 0.00, -187500.02, 0.00, -139039.47, 0.00, 0.00, -0.08, -0.56, 0.82, 10:50:47.747
122, 5359.75, 0.00, 0.00, -187500.02, 0.00, -138243.67, 0.00, 0.00, 0.00, 0.00, 0.00, 10:50:47.750
123, 7353.19, 0.00, 0.00, -187500.02, 0.00, -137778.42, 0.00, 0.00, 0.00, 0.00, 0.00, 10:50:47.755
124, 5508.54, 0.00, 0.00, -187500.02, 0.00, -138226.84, 0.00, 0.00, 0.00, 0.00, 0.00, 10:50:47.759
125, 2241.95, 0.00, 0.00, -187500.02, 0.00, -138997.56, 0.00, 0.00, 0.00, 0.00, 0.00, 10:50:47.764
126, 4560.00, 0.00, 0.00, -187500.02, 0.00, -138434.27, 0.00, 0.00, 0.00, 0.00, 0.00, 10:50:47.766
127, 7375.72, 0.00, 0.00, -187500.02, 0.00, -137747.58, 0.00, 0.00, 0.00, 0.00, 0.00, 10:50:47.771
128, 6036.69, 0.00, 0.00, -187500.02, 0.00, -138095.42, 0.00, 0.00, 0.00, 0.00, 0.00, 10:50:47.774
129, 2588.53, 0.00, 0.00, -187500.02, 0.00, -138907.03, 0.00, 0.00, 0.00, 0.00, 0.00, 10:50:47.777
130, 3733.55, 0.00, 0.00, -187500.02, 0.00, -138631.06, 0.00, 0.00, 0.00, 0.00, 0.00, 10:50:47.782
131, 7237.47, 0.00, 0.00, -187500.02, 0.00, -137787.70, 0.00, 0.00, -0.08, -0.56, 0.83, 10:50:47.786
132, 6435.27, 0.00, 0.00, -187500.02, 0.00, -137999.23, 0.00, 0.00, 0.00, 0.00, 0.00, 10:50:47.790
133, 3114.47, 0.00, 0.00, -187500.02, 0.00, -138810.28, 0.00, 0.00, 0.00, 0.00, 0.00, 10:50:47.794
134, 2997.59, 0.00, 0.00, -187500.02, 0.00, -138823.91, 0.00, 0.00, 0.00, 0.00, 0.00, 10:50:47.798
135, 6931.57, 0.00, 0.00, -187500.02, 0.00, -137857.31, 0.00, 0.00, 0.00, 0.00, 0.00, 10:50:47.801
136, 6766.99, 0.00, 0.00, -187500.02, 0.00, -137905.81, 0.00, 0.00, 0.00, 0.00, 0.00, 10:50:47.805
137, 3737.64, 0.00, 0.00, -187500.02, 0.00, -138642.33, 0.00, 0.00, 0.00, 0.00, 0.00, 10:50:47.810
138, 2434.64, 0.00, 0.00, -187500.02, 0.00, -138949.84, 0.00, 0.00, 0.00, 0.00, 0.00, 10:50:47.815
139, 6469.29, 0.00, 0.00, -187500.02, 0.00, -137984.94, 0.00, 0.00, 0.00, 0.00, 0.00, 10:50:47.818
140, 7036.31, 0.00, 0.00, -187500.02, 0.00, -137844.86, 0.00, 0.00, 0.00, 0.00, 0.00, 10:50:47.822
141, 4392.63, 0.00, 0.00, -187500.02, 0.00, -138481.03, 0.00, 0.00, -0.07, -0.56, 0.84, 10:50:47.826
142, 2095.52, 0.00, 0.00, -187500.02, 0.00, -139024.20, 0.00, 0.00, 0.00, 0.00, 0.00, 10:50:47.829
143, 5810.11, 0.00, 0.00, -187500.02, 0.00, -138128.14, 0.00, 0.00, 0.00, 0.00, 0.00, 10:50:47.834
144, 7193.33, 0.00, 0.00, -187500.02, 0.00, -137805.00, 0.00, 0.00, 0.00, 0.00, 0.00, 10:50:47.838
145, 5003.15, 0.00, 0.00, -187500.02, 0.00, -138331.61, 0.00, 0.00, 0.00, 0.00, 0.00, 10:50:47.843
146, 2026.43, 0.00, 0.00, -187500.02, 0.00, -139065.39, 0.00, 0.00, 0.00, 0.00, 0.00, 10:50:47.847
147, 5030.86, 0.00, 0.00, -187500.02, 0.00, -138332.55, 0.00, 0.00, 0.00, 0.00, 0.00, 10:50:47.851
148, 7237.45, 0.00, 0.00, -187500.02, 0.00, -137773.73, 0.00, 0.00, 0.00, 0.00, 0.00, 10:50:47.853
149, 5520.86, 0.00, 0.00, -187500.02, 0.00, -138186.97, 0.00, 0.00, 0.00, 0.00, 0.00, 10:50:47.858
150, 2166.02, 0.00, 0.00, -187500.02, 0.00, -139000.75, 0.00, 0.00, -0.08, -0.56, 0.83, 10:50:47.861
151, 4169.14, 0.00, 0.00, -187500.02, 0.00, -138535.45, 0.00, 0.00, 0.00, 0.00, 0.00, 10:50:47.866
152, 7224.82, 0.00, 0.00, -187500.02, 0.00, -137813.94, 0.00, 0.00, 0.00, 0.00, 0.00, 10:50:47.871
153, 6000.39, 0.00, 0.00, -187500.02, 0.00, -138090.34, 0.00, 0.00, 0.00, 0.00, 0.00, 10:50:47.874
154, 2582.05, 0.00, 0.00, -187500.02, 0.00, -138910.92, 0.00, 0.00, 0.00, 0.00, 0.00, 10:50:47.877
155, 3375.74, 0.00, 0.00, -187500.02, 0.00, -138729.70, 0.00, 0.00, 0.00, 0.00, 0.00, 10:50:47.881
156, 7052.87, 0.00, 0.00, -187500.02, 0.00, -137830.02, 0.00, 0.00, 0.00, 0.00, 0.00, 10:50:47.886
157, 6447.87, 0.00, 0.00, -187500.02, 0.00, -138015.47, 0.00, 0.00, 0.00, 0.00, 0.00, 10:50:47.890
158, 3201.17, 0.00, 0.00, -187500.02, 0.00, -138811.44, 0.00, 0.00, 0.00, 0.00, 0.00, 10:50:47.894
159, 2709.66, 0.00, 0.00, -187500.02, 0.00, -138885.44, 0.00, 0.00, 0.00, 0.00, 0.00, 10:50:47.898
160, 6737.37, 0.00, 0.00, -187500.02, 0.00, -137907.59, 0.00, 0.00, -0.08, -0.56, 0.83, 10:50:47.901
161, 6763.39, 0.00, 0.00, -187500.02, 0.00, -137881.92, 0.00, 0.00, 0.00, 0.00, 0.00, 10:50:47.906
162, 3850.29, 0.00, 0.00, -187500.02, 0.00, -138598.47, 0.00, 0.00, 0.00, 0.00, 0.00, 10:50:47.911
163, 2224.98, 0.00, 0.00, -187500.02, 0.00, -138983.56, 0.00, 0.00, 0.00, 0.00, 0.00, 10:50:47.915
164, 6230.41, 0.00, 0.00, -187500.02, 0.00, -138034.42, 0.00, 0.00, 0.00, 0.00, 0.00, 10:50:47.919
165, 7053.52, 0.00, 0.00, -187500.02, 0.00, -137862.36, 0.00, 0.00, 0.00, 0.00, 0.00, 10:50:47.922
166, 4548.69, 0.00, 0.00, -187500.02, 0.00, -138462.09, 0.00, 0.00, 0.00, 0.00, 0.00, 10:50:47.928
167, 2013.76, 0.00, 0.00, -187500.02, 0.00, -139080.81, 0.00, 0.00, 0.00, 0.00, 0.00, 10:50:47.931
168, 5548.10, 0.00, 0.00, -187500.02, 0.00, -138226.98, 0.00, 0.00, 0.00, 0.00, 0.00, 10:50:47.934
169, 7191.25, 0.00, 0.00, -187500.02, 0.00, -137860.77, 0.00, 0.00, 0.00, 0.00, 0.00, 10:50:47.938
170, 5141.15, 0.00, 0.00, -187500.02, 0.00, -138364.47, 0.00, 0.00, -0.08, -0.56, 0.83, 10:50:47.941
171, 2020.37, 0.00, 0.00, -187500.02, 0.00, -139107.78, 0.00, 0.00, 0.00, 0.00, 0.00, 10:50:47.946
172, 4769.50, 0.00, 0.00, -187500.02, 0.00, -138429.22, 0.00, 0.00, 0.00, 0.00, 0.00, 10:50:47.950
173, 7289.57, 0.00, 0.00, -187500.02, 0.00, -137835.88, 0.00, 0.00, 0.00, 0.00, 0.00, 10:50:47.954
174, 5753.63, 0.00, 0.00, -187500.02, 0.00, -138247.41, 0.00, 0.00, 0.00, 0.00, 0.00, 10:50:47.957
175, 2336.03, 0.00, 0.00, -187500.02, 0.00, -139036.98, 0.00, 0.00, 0.00, 0.00, 0.00, 10:50:47.961
176, 3981.92, 0.00, 0.00, -187500.02, 0.00, -138627.50, 0.00, 0.00, 0.00, 0.00, 0.00, 10:50:47.966
177, 7265.30, 0.00, 0.00, -187500.02, 0.00, -137862.19, 0.00, 0.00, 0.00, 0.00, 0.00, 10:50:47.970
178, 6230.17, 0.00, 0.00, -187500.02, 0.00, -138123.92, 0.00, 0.00, 0.00, 0.00, 0.00, 10:50:47.974
179, 2835.12, 0.00, 0.00, -187500.02, 0.00, -138957.23, 0.00, 0.00, 0.00, 0.00, 0.00, 10:50:47.977
180, 3219.52, 0.00, 0.00, -187500.02, 0.00, -138859.81, 0.00, 0.00, -0.08, -0.56, 0.83, 10:50:47.982
181, 7032.02, 0.00, 0.00, -187500.02, 0.00, -137919.13, 0.00, 0.00, 0.00, 0.00, 0.00, 10:50:47.986
182, 6592.02, 0.00, 0.00, -187500.02, 0.00, -138010.59, 0.00, 0.00, 0.00, 0.00, 0.00, 10:50:47.989
183, 3422.19, 0.00, 0.00, -187500.02, 0.00, -138779.89, 0.00, 0.00, 0.00, 0.00, 0.00, 10:50:47.993
184, 2589.20, 0.00, 0.00, -187500.02, 0.00, -139010.83, 0.00, 0.00, 0.00, 0.00, 0.00, 10:50:47.998
185, 6643.23, 0.00, 0.00, -187500.02, 0.00, -138046.41, 0.00, 0.00, 0.00, 0.00, 0.00, 10:50:48.002
186, 6889.28, 0.00, 0.00, -187500.02, 0.00, -137965.17, 0.00, 0.00, 0.00, 0.00, 0.00, 10:50:48.006
187, 4076.31, 0.00, 0.00, -187500.02, 0.00, -138621.58, 0.00, 0.00, 0.00, 0.00, 0.00, 10:50:48.008
188, 2137.59, 0.00, 0.00, -187500.02, 0.00, -139086.30, 0.00, 0.00, 0.00, 0.00, 0.00, 10:50:48.013
189, 6040.76, 0.00, 0.00, -187500.02, 0.00, -138132.86, 0.00, 0.00, 0.00, 0.00, 0.00, 10:50:48.017
190, 7092.72, 0.00, 0.00, -187500.02, 0.00, -137864.14, 0.00, 0.00, -0.07, -0.56, 0.83, 10:50:48.020
191, 4726.28, 0.00, 0.00, -187500.02, 0.00, -138451.38, 0.00, 0.00, 0.00, 0.00, 0.00, 10:50:48.026
192, 1962.89, 0.00, 0.00, -187500.02, 0.00, -139130.33, 0.00, 0.00, 0.00, 0.00, 0.00, 10:50:48.030
193, 5316.32, 0.00, 0.00, -187500.02, 0.00, -138302.33, 0.00, 0.00, 0.00, 0.00, 0.00, 10:50:48.033
194, 7230.83, 0.00, 0.00, -187500.02, 0.00, -137843.14, 0.00, 0.00, 0.00, 0.00, 0.00, 10:50:48.037
195, 5318.28, 0.00, 0.00, -187500.02, 0.00, -138310.02, 0.00, 0.00, 0.00, 0.00, 0.00, 10:50:48.041
196, 2038.86, 0.00, 0.00, -187500.02, 0.00, -139095.08, 0.00, 0.00, 0.00, 0.00, 0.00, 10:50:48.045
197, 4470.97, 0.00, 0.00, -187500.02, 0.00, -138499.42, 0.00, 0.00, 0.00, 0.00, 0.00, 10:50:48.049
198, 7228.51, 0.00, 0.00, -187500.02, 0.00, -137844.14, 0.00, 0.00, 0.00, 0.00, 0.00, 10:50:48.053
199, 5796.50, 0.00, 0.00, -187500.02, 0.00, -138175.80, 0.00, 0.00, -0.07, -0.56, 0.83, 10:50:48.058
200, 2353.21, 0.00, 0.00, -187500.02, 0.00, -139007.75, 0.00, 0.00, 0.00, 0.00, 0.00, 10:50:48.061
201, 3632.40, 0.00, 0.00, -187500.02, 0.00, -138717.63, 0.00, 0.00, 0.00, 0.00, 0.00, 10:50:48.065
202, 7098.49, 0.00, 0.00, -187500.02, 0.00, -137874.23, 0.00, 0.00, 0.00, 0.00, 0.00, 10:50:48.070
203, 6235.26, 0.00, 0.00, -187500.02, 0.00, -138082.41, 0.00, 0.00, 0.00, 0.00, 0.00, 10:50:48.073
204, 2872.27, 0.00, 0.00, -187500.02, 0.00, -138877.13, 0.00, 0.00, 0.00, 0.00, 0.00, 10:50:48.078
205, 2897.64, 0.00, 0.00, -187500.02, 0.00, -138894.42, 0.00, 0.00, 0.00, 0.00, 0.00, 10:50:48.080
206, 6854.94, 0.00, 0.00, -187500.02, 0.00, -137942.20, 0.00, 0.00, 0.00, 0.00, 0.00, 10:50:48.087
207, 6627.36, 0.00, 0.00, -187500.02, 0.00, -137994.17, 0.00, 0.00, 0.00, 0.00, 0.00, 10:50:48.090
208, 3548.59, 0.00, 0.00, -187500.02, 0.00, -138734.70, 0.00, 0.00, 0.00, 0.00, 0.00, 10:50:48.093
209, 2349.91, 0.00, 0.00, -187500.02, 0.00, -139039.84, 0.00, 0.00, -0.08, -0.55, 0.83, 10:50:48.097
210, 6440.57, 0.00, 0.00, -187500.02, 0.00, -138051.44, 0.00, 0.00, 0.00, 0.00, 0.00, 10:50:48.101
211, 6957.63, 0.00, 0.00, -187500.02, 0.00, -137942.27, 0.00, 0.00, 0.00, 0.00, 0.00, 10:50:48.105
212, 4247.86, 0.00, 0.00, -187500.02, 0.00, -138585.86, 0.00, 0.00, 0.00, 0.00, 0.00, 10:50:48.108
213, 2010.52, 0.00, 0.00, -187500.02, 0.00, -139095.55, 0.00, 0.00, 0.00, 0.00, 0.00, 10:50:48.114
214, 5841.58, 0.00, 0.00, -187500.02, 0.00, -138178.23, 0.00, 0.00, 0.00, 0.00, 0.00, 10:50:48.118
215, 7175.67, 0.00, 0.00, -187500.02, 0.00, -137869.13, 0.00, 0.00, 0.00, 0.00, 0.00, 10:50:48.120
216, 4938.75, 0.00, 0.00, -187500.02, 0.00, -138395.42, 0.00, 0.00, 0.00, 0.00, 0.00, 10:50:48.125
217, 1975.25, 0.00, 0.00, -187500.02, 0.00, -139130.80, 0.00, 0.00, 0.00, 0.00, 0.00, 10:50:48.129
218, 5124.38, 0.00, 0.00, -187500.02, 0.00, -138382.27, 0.00, 0.00, 0.00, 0.00, 0.00, 10:50:48.133
219, 7350.66, 0.00, 0.00, -187500.02, 0.00, -137845.81, 0.00, 0.00, -0.07, -0.56, 0.84, 10:50:48.137
220, 5598.40, 0.00, 0.00, -187500.02, 0.00, -138273.27, 0.00, 0.00, 0.00, 0.00, 0.00, 10:50:48.142
221, 2204.28, 0.00, 0.00, -187500.02, 0.00, -139079.02, 0.00, 0.00, 0.00, 0.00, 0.00, 10:50:48.146
222, 4331.86, 0.00, 0.00, -187500.02, 0.00, -138551.78, 0.00, 0.00, 0.00, 0.00, 0.00, 10:50:48.150
223, 7418.21, 0.00, 0.00, -187500.02, 0.00, -137833.28, 0.00, 0.00, 0.00, 0.00, 0.00, 10:50:48.153
224, 6164.57, 0.00, 0.00, -187500.02, 0.00, -138128.77, 0.00, 0.00, 0.00, 0.00, 0.00, 10:50:48.158
225, 2663.55, 0.00, 0.00, -187500.02, 0.00, -138971.75, 0.00, 0.00, 0.00, 0.00, 0.00, 10:50:48.163
226, 3555.51, 0.00, 0.00, -187500.02, 0.00, -138769.27, 0.00, 0.00, 0.00, 0.00, 0.00, 10:50:48.168
227, 7283.94, 0.00, 0.00, -187500.02, 0.00, -137841.13, 0.00, 0.00, 0.00, 0.00, 0.00, 10:50:48.172
228, 6628.72, 0.00, 0.00, -187500.02, 0.00, -138018.13, 0.00, 0.00, 0.00, 0.00, 0.00, 10:50:48.174
229, 3255.26, 0.00, 0.00, -187500.02, 0.00, -138848.52, 0.00, 0.00, -0.08, -0.55, 0.83, 10:50:48.178
230, 2825.24, 0.00, 0.00, -187500.02, 0.00, -138953.23, 0.00, 0.00, 0.00, 0.00, 0.00, 10:50:48.182
231, 6950.59, 0.00, 0.00, -187500.02, 0.00, -137954.56, 0.00, 0.00, 0.00, 0.00, 0.00, 10:50:48.185
232, 6960.67, 0.00, 0.00, -187500.02, 0.00, -137961.88, 0.00, 0.00, 0.00, 0.00, 0.00, 10:50:48.189
233, 3921.79, 0.00, 0.00, -187500.02, 0.00, -138712.27, 0.00, 0.00, 0.00, 0.00, 0.00, 10:50:48.193
234, 2289.11, 0.00, 0.00, -187500.02, 0.00, -139100.64, 0.00, 0.00, 0.00, 0.00, 0.00, 10:50:48.199
235, 6427.89, 0.00, 0.00, -187500.02, 0.00, -138103.25, 0.00, 0.00, 0.00, 0.00, 0.00, 10:50:48.201
236, 7212.82, 0.00, 0.00, -187500.02, 0.00, -137899.11, 0.00, 0.00, 0.00, 0.00, 0.00, 10:50:48.204
237, 4610.16, 0.00, 0.00, -187500.02, 0.00, -138561.23, 0.00, 0.00, 0.00, 0.00, 0.00, 10:50:48.209
238, 2011.10, 0.00, 0.00, -187500.02, 0.00, -139200.27, 0.00, 0.00, -0.08, -0.56, 0.82, 10:50:48.213
239, 5730.85, 0.00, 0.00, -187500.02, 0.00, -138298.83, 0.00, 0.00, 0.00, 0.00, 0.00, 10:50:48.217
240, 7396.37, 0.00, 0.00, -187500.02, 0.00, -137877.33, 0.00, 0.00, 0.00, 0.00, 0.00, 10:50:48.221
241, 5256.10, 0.00, 0.00, -187500.02, 0.00, -138381.67, 0.00, 0.00, 0.00, 0.00, 0.00, 10:50:48.226
242, 1975.67, 0.00, 0.00, -187500.02, 0.00, -139164.19, 0.00, 0.00, 0.00, 0.00, 0.00, 10:50:48.230
243, 4896.98, 0.00, 0.00, -187500.02, 0.00, -138469.64, 0.00, 0.00, 0.00, 0.00, 0.00, 10:50:48.235
244, 7464.88, 0.00, 0.00, -187500.02, 0.00, -137837.81, 0.00, 0.00, 0.00, 0.00, 0.00, 10:50:48.239
245, 5814.85, 0.00, 0.00, -187500.02, 0.00, -138235.52, 0.00, 0.00, 0.00, 0.00, 0.00, 10:50:48.242
246, 2222.39, 0.00, 0.00, -187500.02, 0.00, -139112.11, 0.00, 0.00, 0.00, 0.00, 0.00, 10:50:48.247
247, 4000.60, 0.00, 0.00, -187500.02, 0.00, -138696.53, 0.00, 0.00, 0.00, 0.00, 0.00, 10:50:48.251
248, 7399.63, 0.00, 0.00, -187500.02, 0.00, -137866.67, 0.00, 0.00, -0.08, -0.56, 0.82, 10:50:48.255
249, 6285.06, 0.00, 0.00, -187500.02, 0.00, -138139.16, 0.00, 0.00, 0.00, 0.00, 0.00, 10:50:48.257
250, 2654.81, 0.00, 0.00, -187500.02, 0.00, -139023.70, 0.00, 0.00, 0.00, 0.00, 0.00, 10:50:48.261
251, 3124.59, 0.00, 0.00, -187500.02, 0.00, -138897.73, 0.00, 0.00, 0.00, 0.00, 0.00, 10:50:48.266
252, 7194.87, 0.00, 0.00, -187500.02, 0.00, -137930.59, 0.00, 0.00, 0.00, 0.00, 0.00, 10:50:48.270
253, 6717.12, 0.00, 0.00, -187500.02, 0.00, -138035.39, 0.00, 0.00, 0.00, 0.00, 0.00, 10:50:48.273
254, 3286.00, 0.00, 0.00, -187500.02, 0.00, -138856.83, 0.00, 0.00, 0.00, 0.00, 0.00, 10:50:48.277
255, 2406.43, 0.00, 0.00, -187500.02, 0.00, -139068.19, 0.00, 0.00, 0.00, 0.00, 0.00, 10:50:48.281
0, 6844.22, 0.00, 0.00, -187500.02, 0.00, -138012.61, 0.00, 0.00, 0.00, 0.00, 0.00, 10:50:48.284
1, 7131.64, 0.00, 0.00, -187500.02, 0.00, -137937.38, 0.00, 0.00, 0.00, 0.00, 0.00, 10:50:48.288
2, 4054.90, 0.00, 0.00, -187500.02, 0.00, -138683.45, 0.00, 0.00, -0.07, -0.55, 0.83, 10:50:48.292
3, 1914.23, 0.00, 0.00, -187500.02, 0.00, -139219.91, 0.00, 0.00, 0.00, 0.00, 0.00, 10:50:48.297
4, 6289.18, 0.00, 0.00, -187500.02, 0.00, -138190.27, 0.00, 0.00, 0.00, 0.00, 0.00, 10:50:48.302
5, 7475.67, 0.00, 0.00, -187500.02, 0.00, -137880.16, 0.00, 0.00, 0.00, 0.00, 0.00, 10:50:48.305
6, 4835.78, 0.00, 0.00, -187500.02, 0.00, -138519.66, 0.00, 0.00, 0.00, 0.00, 0.00, 10:50:48.309
7, 1629.04, 0.00, 0.00, -187500.02, 0.00, -139305.61, 0.00, 0.00, 0.00, 0.00, 0.00, 10:50:48.314
8, 5490.86, 0.00, 0.00, -187500.02, 0.00, -138376.98, 0.00, 0.00, 0.00, 0.00, 0.00, 10:50:48.318
9, 7777.40, 0.00, 0.00, -187500.02, 0.00, -137830.78, 0.00, 0.00, 0.00, 0.00, 0.00, 10:50:48.322
10, 5642.05, 0.00, 0.00, -187500.02, 0.00, -138353.81, 0.00, 0.00, 0.00, 0.00, 0.00, 10:50:48.326
11, 1642.32, 0.00, 0.00, -187500.02, 0.00, -139307.06, 0.00, 0.00, 0.00, 0.00, 0.00, 10:50:48.330
12, 4517.69, 0.00, 0.00, -187500.02, 0.00, -138615.88, 0.00, 0.00, -0.08, -0.56, 0.83, 10:50:48.336
13, 7974.43, 0.00, 0.00, -187500.02, 0.00, -137776.45, 0.00, 0.00, 0.00, 0.00, 0.00, 10:50:48.338
14, 6391.24, 0.00, 0.00, -187500.02, 0.00, -138158.91, 0.00, 0.00, 0.00, 0.00, 0.00, 10:50:48.341
15, 1965.81, 0.00, 0.00, -187500.02, 0.00, -139222.95, 0.00, 0.00, 0.00, 0.00, 0.00, 10:50:48.345
16, 3432.96, 0.00, 0.00, -187500.02, 0.00, -138867.09, 0.00, 0.00, 0.00, 0.00, 0.00, 10:50:48.349
17, 8057.65, 0.00, 0.00, -187500.02, 0.00, -137774.05, 0.00, 0.00, 0.00, 0.00, 0.00, 10:50:48.353
18, 7163.82, 0.00, 0.00, -187500.02, 0.00, -137994.45, 0.00, 0.00, 0.00, 0.00, 0.00, 10:50:48.357
19, 2662.16, 0.00, 0.00, -187500.02, 0.00, -139082.05, 0.00, 0.00, 0.00, 0.00, 0.00, 10:50:48.361
20, 2348.63, 0.00, 0.00, -187500.02, 0.00, -139147.89, 0.00, 0.00, 0.00, 0.00, 0.00, 10:50:48.366
21, 7752.99, 0.00, 0.00, -187500.02, 0.00, -137844.75, 0.00, 0.00, 0.00, 0.00, 0.00, 10:50:48.368
22, 7722.73, 0.00, 0.00, -187500.02, 0.00, -137858.64, 0.00, 0.00, -0.08, -0.54, 0.84, 10:50:48.372
23, 3560.77, 0.00, 0.00, -187500.02, 0.00, -138852.03, 0.00, 0.00, 0.00, 0.00, 0.00, 10:50:48.376
24, 1503.83, 0.00, 0.00, -187500.02, 0.00, -139361.67, 0.00, 0.00, 0.00, 0.00, 0.00, 10:50:48.381
25, 7112.30, 0.00, 0.00, -187500.02, 0.00, -138016.91, 0.00, 0.00, 0.00, 0.00, 0.00, 10:50:48.386
26, 8128.99, 0.00, 0.00, -187500.02, 0.00, -137760.41, 0.00, 0.00, 0.00, 0.00, 0.00, 10:50:48.388
27, 4535.53, 0.00, 0.00, -187500.02, 0.00, -138592.92, 0.00, 0.00, 0.00, 0.00, 0.00, 10:50:48.393
28, 984.59, 0.00, 0.00, -187500.02, 0.00, -139445.53, 0.00, 0.00, 0.00, 0.00, 0.00, 10:50:48.398
29, 6150.60, 0.00, 0.00, -187500.02, 0.00, -138203.84, 0.00, 0.00, 0.00, 0.00, 0.00, 10:50:48.403
30, 8380.58, 0.00, 0.00, -187500.02, 0.00, -137661.33, 0.00, 0.00, 0.00, 0.00, 0.00, 10:50:48.407
31, 5529.33, 0.00, 0.00, -187500.02, 0.00, -138392.45, 0.00, 0.00, -0.07, -0.55, 0.83, 10:50:48.409
32, 922.55, 0.00, 0.00, -187500.02, 0.00, -139510.11, 0.00, 0.00, 0.00, 0.00, 0.00, 10:50:48.413
33, 5028.43, 0.00, 0.00, -187500.02, 0.00, -138529.94, 0.00, 0.00, 0.00, 0.00, 0.00, 10:50:48.417
34, 8540.29, 0.00, 0.00, -187500.02, 0.00, -137698.92, 0.00, 0.00, 0.00, 0.00, 0.00, 10:50:48.422
35, 6407.89, 0.00, 0.00, -187500.02, 0.00, -138207.73, 0.00, 0.00, 0.00, 0.00, 0.00, 10:50:48.425
36, 1261.53, 0.00, 0.00, -187500.02, 0.00, -139444.59, 0.00, 0.00, 0.00, 0.00, 0.00, 10:50:48.429
37, 3735.11, 0.00, 0.00, -187500.02, 0.00, -138841.98, 0.00, 0.00, 0.00, 0.00, 0.00, 10:50:48.432
38, 8455.91, 0.00, 0.00, -187500.02, 0.00, -137743.47, 0.00, 0.00, 0.00, 0.00, 0.00, 10:50:48.436
39, 7193.64, 0.00, 0.00, -187500.02, 0.00, -138038.02, 0.00, 0.00, 0.00, 0.00, 0.00, 10:50:48.440
40, 1988.37, 0.00, 0.00, -187500.02, 0.00, -139268.81, 0.00, 0.00, 0.00, 0.00, 0.00, 10:50:48.445
41, 2466.54, 0.00, 0.00, -187500.02, 0.00, -139141.75, 0.00, 0.00, -0.09, -0.56, 0.83, 10:50:48.448
42, 8079.75, 0.00, 0.00, -187500.02, 0.00, -137840.95, 0.00, 0.00, 0.00, 0.00, 0.00, 10:50:48.453
43, 7789.16, 0.00, 0.00, -187500.02, 0.00, -137902.56, 0.00, 0.00, 0.00, 0.00, 0.00, 10:50:48.458
44, 2940.91, 0.00, 0.00, -187500.02, 0.00, -139055.06, 0.00, 0.00, 0.00, 0.00, 0.00, 10:50:48.461
45, 1389.41, 0.00, 0.00, -187500.02, 0.00, -139388.25, 0.00, 0.00, 0.00, 0.00, 0.00, 10:50:48.465
46, 7390.58, 0.00, 0.00, -187500.02, 0.00, -137967.64, 0.00, 0.00, 0.00, 0.00, 0.00, 10:50:48.470
47, 8244.53, 0.00, 0.00, -187500.02, 0.00, -137787.14, 0.00, 0.00, 0.00, 0.00, 0.00, 10:50:48.474
48, 4072.04, 0.00, 0.00, -187500.02, 0.00, -138774.27, 0.00, 0.00, 0.00, 0.00, 0.00, 10:50:48.478
49, 669.26, 0.00, 0.00, -187500.02, 0.00, -139550.75, 0.00, 0.00, 0.00, 0.00, 0.00, 10:50:48.485
50, 6393.76, 0.00, 0.00, -187500.02, 0.00, -138207.84, 0.00, 0.00, 0.00, 0.00, 0.00, 10:50:48.486
51, 8564.29, 0.00, 0.00, -187500.02, 0.00, -137700.64, 0.00, 0.00, -0.09, -0.56, 0.84, 10:50:48.489
52, 5265.13, 0.00, 0.00, -187500.02, 0.00, -138472.38, 0.00, 0.00, 0.00, 0.00, 0.00, 10:50:48.493
53, 417.82, 0.00, 0.00, -187500.02, 0.00, -139612.36, 0.00, 0.00, 0.00, 0.00, 0.00, 10:50:48.496
54, 5088.69, 0.00, 0.00, -187500.02, 0.00, -138492.55, 0.00, 0.00, 0.00, 0.00, 0.00, 10:50:48.500
55, 8603.50, 0.00, 0.00, -187500.02, 0.00, -137661.95, 0.00, 0.00, 0.00, 0.00, 0.00, 10:50:48.505
56, 6310.88, 0.00, 0.00, -187500.02, 0.00, -138215.16, 0.00, 0.00, 0.00, 0.00, 0.00, 10:50:48.510
57, 736.58, 0.00, 0.00, -187500.02, 0.00, -139536.66, 0.00, 0.00, 0.00, 0.00, 0.00, 10:50:48.512
58, 1791.09, 0.00, 0.00, -187500.02, 0.00, -139285.47, 0.00, 0.00, 0.00, 0.00, 0.00, 10:50:48.517
59, -329.00, 0.00, 0.00, -187500.02, 0.00, -139778.31, 0.00, 0.00, 0.00, 0.00, 0.00, 10:50:48.521
60, -1362.14, 0.00, 0.00, -187500.02, 0.00, -140006.09, 0.00, 0.00, 0.00, 0.00, 0.00, 10:50:48.525
61, 7796.98, 0.00, 0.00, -187500.02, 0.00, -137902.13, 0.00, 0.00, -0.08, -0.56, 0.83, 10:50:48.529
62, 11074.42, 0.00, 0.00, -187500.02, 0.00, -137108.95, 0.00, 0.00, 0.00, 0.00, 0.00, 10:50:48.532
63, 1221.57, 0.00, 0.00, -187500.02, 0.00, -139394.91, 0.00, 0.00, 0.00, 0.00, 0.00, 10:50:48.537
64, -1441.46, 0.00, 0.00, -187500.02, 0.00, -140017.11, 0.00, 0.00, 0.00, 0.00, 0.00, 10:50:48.541
65, 5983.20, 0.00, 0.00, -187500.02, 0.00, -138332.30, 0.00, 0.00, 0.00, 0.00, 0.00, 10:50:48.544
66, 12327.28, 0.00, 0.00, -187500.02, 0.00, -136810.91, 0.00, 0.00, 0.00, 0.00, 0.00, 10:50:48.548
67, 2813.77, 0.00, 0.00, -187500.02, 0.00, -139012.17, 0.00, 0.00, 0.00, 0.00, 0.00, 10:50:48.553
68, -1366.72, 0.00, 0.00, -187500.02, 0.00, -140018.16, 0.00, 0.00, 0.00, 0.00, 0.00, 10:50:48.556
69, 4086.14, 0.00, 0.00, -187500.02, 0.00, -138752.97, 0.00, 0.00, 0.00, 0.00, 0.00, 10:50:48.562
70, 12815.51, 0.00, 0.00, -187500.02, 0.00, -136697.28, 0.00, 0.00, 0.00, 0.00, 0.00, 10:50:48.565
71, 4602.25, 0.00, 0.00, -187500.02, 0.00, -138601.39, 0.00, 0.00, -0.08, -0.54, 0.82, 10:50:48.569
72, -1148.90, 0.00, 0.00, -187500.02, 0.00, -139952.30, 0.00, 0.00, 0.00, 0.00, 0.00, 10:50:48.572
73, 2383.52, 0.00, 0.00, -187500.02, 0.00, -139143.66, 0.00, 0.00, 0.00, 0.00, 0.00, 10:50:48.576
74, 12619.53, 0.00, 0.00, -187500.02, 0.00, -136744.09, 0.00, 0.00, 0.00, 0.00, 0.00, 10:50:48.581
75, 6597.47, 0.00, 0.00, -187500.02, 0.00, -138141.42, 0.00, 0.00, 0.00, 0.00, 0.00, 10:50:48.584
76, -716.02, 0.00, 0.00, -187500.02, 0.00, -139849.73, 0.00, 0.00, 0.00, 0.00, 0.00, 10:50:48.589
77, 964.68, 0.00, 0.00, -187500.02, 0.00, -139492.47, 0.00, 0.00, 0.00, 0.00, 0.00, 10:50:48.592
78, 11678.27, 0.00, 0.00, -187500.02, 0.00, -136980.03, 0.00, 0.00, 0.00, 0.00, 0.00, 10:50:48.595
79, 8596.26, 0.00, 0.00, -187500.02, 0.00, -137686.88, 0.00, 0.00, 0.00, 0.00, 0.00, 10:50:48.600
80, -178.39, 0.00, 0.00, -187500.02, 0.00, -139747.77, 0.00, 0.00, -0.06, -0.53, 0.84, 10:50:48.605
81, -130.80, 0.00, 0.00, -187500.02, 0.00, -139744.31, 0.00, 0.00, 0.00, 0.00, 0.00, 10:50:48.608
82, 10056.94, 0.00, 0.00, -187500.02, 0.00, -137378.13, 0.00, 0.00, 0.00, 0.00, 0.00, 10:50:48.612
83, 10591.87, 0.00, 0.00, -187500.02, 0.00, -137212.80, 0.00, 0.00, 0.00, 0.00, 0.00, 10:50:48.617
84, 829.14, 0.00, 0.00, -187500.02, 0.00, -139464.08, 0.00, 0.00, 0.00, 0.00, 0.00, 10:50:48.620
85, -736.13, 0.00, 0.00, -187500.02, 0.00, -139840.64, 0.00, 0.00, 0.00, 0.00, 0.00, 10:50:48.625
86, 8028.95, 0.00, 0.00, -187500.02, 0.00, -137844.67, 0.00, 0.00, 0.00, 0.00, 0.00, 10:50:48.630
87, 11840.90, 0.00, 0.00, -187500.02, 0.00, -136953.64, 0.00, 0.00, 0.00, 0.00, 0.00, 10:50:48.634
88, 1878.26, 0.00, 0.00, -187500.02, 0.00, -139261.80, 0.00, 0.00, 0.00, 0.00, 0.00, 10:50:48.637
89, -1065.69, 0.00, 0.00, -187500.02, 0.00, -139939.16, 0.00, 0.00, 0.00, 0.00, 0.00, 10:50:48.641
90, 5720.62, 0.00, 0.00, -187500.02, 0.00, -138390.03, 0.00, 0.00, -0.08, -0.57, 0.84, 10:50:48.647
91, 14011.55, 0.00, 0.00, -187500.02, 0.00, -136445.66, 0.00, 0.00, 0.00, 0.00, 0.00, 10:50:48.649
92, 5708.01, 0.00, 0.00, -187500.02, 0.00, -138330.00, 0.00, 0.00, 0.00, 0.00, 0.00, 10:50:48.654
93, 1645.92, 0.00, 0.00, -187500.02, 0.00, -139289.42, 0.00, 0.00, 0.00, 0.00, 0.00, 10:50:48.657
94, -1848.00, 0.00, 0.00, -187500.02, 0.00, -140153.92, 0.00, 0.00, 0.00, 0.00, 0.00, 10:50:48.660
95, -4206.87, 0.00, 0.00, -187500.02, 0.00, -140708.72, 0.00, 0.00, 0.00, 0.00, 0.00, 10:50:48.665
96, 2394.99, 0.00, 0.00, -187500.02, 0.00, -139117.39, 0.00, 0.00, 0.00, 0.00, 0.00, 10:50:48.669
97, 4658.08, 0.00, 0.00, -187500.02, 0.00, -138584.36, 0.00, 0.00, 0.00, 0.00, 0.00, 10:50:48.672
98, 1264.73, 0.00, 0.00, -187500.02, 0.00, -139394.53, 0.00, 0.00, 0.00, 0.00, 0.00, 10:50:48.677
99, -2894.53, 0.00, 0.00, -187500.02, 0.00, -140389.53, 0.00, 0.00, 0.00, 0.00, 0.00, 10:50:48.679
100, 2800.14, 0.00, 0.00, -187500.02, 0.00, -139023.22, 0.00, 0.00, -0.12, -0.61, 0.80, 10:50:48.683
101, 6084.28, 0.00, 0.00, -187500.02, 0.00, -138234.53, 0.00, 0.00, 0.00, 0.00, 0.00, 10:50:48.689
102, 3377.55, 0.00, 0.00, -187500.02, 0.00, -138868.64, 0.00, 0.00, 0.00, 0.00, 0.00, 10:50:48.693
103, -1971.24, 0.00, 0.00, -187500.02, 0.00, -140138.53, 0.00, 0.00, 0.00, 0.00, 0.00, 10:50:48.696
104, 2348.18, 0.00, 0.00, -187500.02, 0.00, -139119.47, 0.00, 0.00, 0.00, 0.00, 0.00, 10:50:48.700
105, 6869.72, 0.00, 0.00, -187500.02, 0.00, -138028.31, 0.00, 0.00, 0.00, 0.00, 0.00, 10:50:48.705
106, 5001.76, 0.00, 0.00, -187500.02, 0.00, -138480.72, 0.00, 0.00, 0.00, 0.00, 0.00, 10:50:48.710
107, -997.42, 0.00, 0.00, -187500.02, 0.00, -139878.42, 0.00, 0.00, 0.00, 0.00, 0.00, 10:50:48.713
108, 1366.21, 0.00, 0.00, -187500.02, 0.00, -139293.14, 0.00, 0.00, 0.00, 0.00, 0.00, 10:50:48.717
109, 7005.66, 0.00, 0.00, -187500.02, 0.00, -137968.75, 0.00, 0.00, 0.00, 0.00, 0.00, 10:50:48.722
110, 6071.56, 0.00, 0.00, -187500.02, 0.00, -138201.19, 0.00, 0.00, -0.06, -0.56, 0.81, 10:50:48.725
111, 205.17, 0.00, 0.00, -187500.02, 0.00, -139593.53, 0.00, 0.00, 0.00, 0.00, 0.00, 10:50:48.730
112, 445.00, 0.00, 0.00, -187500.02, 0.00, -139526.45, 0.00, 0.00, 0.00, 0.00, 0.00, 10:50:48.733
113, 6875.64, 0.00, 0.00, -187500.02, 0.00, -137997.83, 0.00, 0.00, 0.00, 0.00, 0.00, 10:50:48.736
114, 6942.12, 0.00, 0.00, -187500.02, 0.00, -137984.52, 0.00, 0.00, 0.00, 0.00, 0.00, 10:50:48.740
115, 1612.88, 0.00, 0.00, -187500.02, 0.00, -139217.66, 0.00, 0.00, 0.00, 0.00, 0.00, 10:50:48.743
116, -257.78, 0.00, 0.00, -187500.02, 0.00, -139637.44, 0.00, 0.00, 0.00, 0.00, 0.00, 10:50:48.749
117, 6408.38, 0.00, 0.00, -187500.02, 0.00, -138079.14, 0.00, 0.00, 0.00, 0.00, 0.00, 10:50:48.753
118, 7570.71, 0.00, 0.00, -187500.02, 0.00, -137798.14, 0.00, 0.00, 0.00, 0.00, 0.00, 10:50:48.755
119, 3090.55, 0.00, 0.00, -187500.02, 0.00, -138874.33, 0.00, 0.00, -0.07, -0.60, 0.82, 10:50:48.760
120, -605.71, 0.00, 0.00, -187500.02, 0.00, -139743.03, 0.00, 0.00, 0.00, 0.00, 0.00, 10:50:48.764
121, 5641.89, 0.00, 0.00, -187500.02, 0.00, -138243.39, 0.00, 0.00, 0.00, 0.00, 0.00, 10:50:48.767
122, 8035.25, 0.00, 0.00, -187500.02, 0.00, -137709.63, 0.00, 0.00, 0.00, 0.00, 0.00, 10:50:48.772
123, 4453.61, 0.00, 0.00, -187500.02, 0.00, -138585.70, 0.00, 0.00, 0.00, 0.00, 0.00, 10:50:48.777
124, -690.94, 0.00, 0.00, -187500.02, 0.00, -139801.42, 0.00, 0.00, 0.00, 0.00, 0.00, 10:50:48.781
125, 4551.19, 0.00, 0.00, -187500.02, 0.00, -138543.53, 0.00, 0.00, 0.00, 0.00, 0.00, 10:50:48.784
126, 8256.09, 0.00, 0.00, -187500.02, 0.00, -137689.63, 0.00, 0.00, 0.00, 0.00, 0.00, 10:50:48.789
127, 5619.30, 0.00, 0.00, -187500.02, 0.00, -138306.17, 0.00, 0.00, 0.00, 0.00, 0.00, 10:50:48.793
128, -446.72, 0.00, 0.00, -187500.02, 0.00, -139731.34, 0.00, 0.00, 0.00, 0.00, 0.00, 10:50:48.798
129, 3199.61, 0.00, 0.00, -187500.02, 0.00, -138841.36, 0.00, 0.00, -0.12, -0.59, 0.83, 10:50:48.801
130, 8259.66, 0.00, 0.00, -187500.02, 0.00, -137645.19, 0.00, 0.00, 0.00, 0.00, 0.00, 10:50:48.805
131, 6636.66, 0.00, 0.00, -187500.02, 0.00, -138053.42, 0.00, 0.00, 0.00, 0.00, 0.00, 10:50:48.810
132, 252.87, 0.00, 0.00, -187500.02, 0.00, -139559.97, 0.00, 0.00, 0.00, 0.00, 0.00, 10:50:48.814
133, 1821.00, 0.00, 0.00, -187500.02, 0.00, -139179.38, 0.00, 0.00, 0.00, 0.00, 0.00, 10:50:48.818
134, 8024.10, 0.00, 0.00, -187500.02, 0.00, -137711.80, 0.00, 0.00, 0.00, 0.00, 0.00, 10:50:48.820
135, 7446.89, 0.00, 0.00, -187500.02, 0.00, -137863.80, 0.00, 0.00, 0.00, 0.00, 0.00, 10:50:48.824
136, 1374.19, 0.00, 0.00, -187500.02, 0.00, -139307.95, 0.00, 0.00, 0.00, 0.00, 0.00, 10:50:48.827
137, 688.55, 0.00, 0.00, -187500.02, 0.00, -139489.39, 0.00, 0.00, 0.00, 0.00, 0.00, 10:50:48.832
138, 7512.60, 0.00, 0.00, -187500.02, 0.00, -137880.47, 0.00, 0.00, 0.00, 0.00, 0.00, 10:50:48.836
139, 8010.73, 0.00, 0.00, -187500.02, 0.00, -137780.94, 0.00, 0.00, -0.08, -0.55, 0.84, 10:50:48.839
140, 2621.19, 0.00, 0.00, -187500.02, 0.00, -139037.92, 0.00, 0.00, 0.00, 0.00, 0.00, 10:50:48.844
141, -222.51, 0.00, 0.00, -187500.02, 0.00, -139690.38, 0.00, 0.00, 0.00, 0.00, 0.00, 10:50:48.848
142, 6673.52, 0.00, 0.00, -187500.02, 0.00, -138061.42, 0.00, 0.00, 0.00, 0.00, 0.00, 10:50:48.852
143, 8368.65, 0.00, 0.00, -187500.02, 0.00, -137654.33, 0.00, 0.00, 0.00, 0.00, 0.00, 10:50:48.856
144, 3939.14, 0.00, 0.00, -187500.02, 0.00, -138708.97, 0.00, 0.00, 0.00, 0.00, 0.00, 10:50:48.861
145, -681.04, 0.00, 0.00, -187500.02, 0.00, -139808.84, 0.00, 0.00, 0.00, 0.00, 0.00, 10:50:48.863
146, 5564.78, 0.00, 0.00, -187500.02, 0.00, -138316.05, 0.00, 0.00, 0.00, 0.00, 0.00, 10:50:48.867
147, 8575.42, 0.00, 0.00, -187500.02, 0.00, -137616.58, 0.00, 0.00, 0.00, 0.00, 0.00, 10:50:48.872
148, 5167.10, 0.00, 0.00, -187500.02, 0.00, -138445.05, 0.00, 0.00, 0.00, 0.00, 0.00, 10:50:48.876
149, -652.18, 0.00, 0.00, -187500.02, 0.00, -139833.56, 0.00, 0.00, -0.10, -0.59, 0.82, 10:50:48.879
150, 4294.17, 0.00, 0.00, -187500.02, 0.00, -138650.41, 0.00, 0.00, 0.00, 0.00, 0.00, 10:50:48.884
151, 8576.99, 0.00, 0.00, -187500.02, 0.00, -137632.22, 0.00, 0.00, 0.00, 0.00, 0.00, 10:50:48.890
152, 6204.42, 0.00, 0.00, -187500.02, 0.00, -138197.97, 0.00, 0.00, 0.00, 0.00, 0.00, 10:50:48.893
153, -136.03, 0.00, 0.00, -187500.02, 0.00, -139723.23, 0.00, 0.00, 0.00, 0.00, 0.00, 10:50:48.896
154, 3004.32, 0.00, 0.00, -187500.02, 0.00, -138947.14, 0.00, 0.00, 0.00, 0.00, 0.00, 10:50:48.900
155, 8481.21, 0.00, 0.00, -187500.02, 0.00, -137625.97, 0.00, 0.00, 0.00, 0.00, 0.00, 10:50:48.904
156, 7105.66, 0.00, 0.00, -187500.02, 0.00, -137973.42, 0.00, 0.00, 0.00, 0.00, 0.00, 10:50:48.908
157, 739.69, 0.00, 0.00, -187500.02, 0.00, -139482.45, 0.00, 0.00, 0.00, 0.00, 0.00, 10:50:48.912
158, 1701.10, 0.00, 0.00, -187500.02, 0.00, -139233.73, 0.00, 0.00, 0.00, 0.00, 0.00, 10:50:48.916
159, 8125.28, 0.00, 0.00, -187500.02, 0.00, -137708.17, 0.00, 0.00, -0.11, -0.55, 0.82, 10:50:48.920
160, 7776.02, 0.00, 0.00, -187500.02, 0.00, -137790.98, 0.00, 0.00, 0.00, 0.00, 0.00, 10:50:48.923
161, 1895.61, 0.00, 0.00, -187500.02, 0.00, -139185.67, 0.00, 0.00, 0.00, 0.00, 0.00, 10:50:48.927
162, 600.75, 0.00, 0.00, -187500.02, 0.00, -139489.23, 0.00, 0.00, 0.00, 0.00, 0.00, 10:50:48.932
163, 7544.00, 0.00, 0.00, -187500.02, 0.00, -137857.55, 0.00, 0.00, 0.00, 0.00, 0.00, 10:50:48.936
164, 8344.80, 0.00, 0.00, -187500.02, 0.00, -137666.05, 0.00, 0.00, 0.00, 0.00, 0.00, 10:50:48.940
165, 3256.67, 0.00, 0.00, -187500.02, 0.00, -138899.69, 0.00, 0.00, 0.00, 0.00, 0.00, 10:50:48.944
166, -120.97, 0.00, 0.00, -187500.02, 0.00, -139686.22, 0.00, 0.00, 0.00, 0.00, 0.00, 10:50:48.949
167, 6703.09, 0.00, 0.00, -187500.02, 0.00, -138084.45, 0.00, 0.00, 0.00, 0.00, 0.00, 10:50:48.952
168, 8758.82, 0.00, 0.00, -187500.02, 0.00, -137612.89, 0.00, 0.00, -0.09, -0.54, 0.84, 10:50:48.957
169, 4607.72, 0.00, 0.00, -187500.02, 0.00, -138590.89, 0.00, 0.00, 0.00, 0.00, 0.00, 10:50:48.962
170, -423.70, 0.00, 0.00, -187500.02, 0.00, -139750.77, 0.00, 0.00, 0.00, 0.00, 0.00, 10:50:48.965
171, 5576.74, 0.00, 0.00, -187500.02, 0.00, -138336.97, 0.00, 0.00, 0.00, 0.00, 0.00, 10:50:48.970
172, 8959.56, 0.00, 0.00, -187500.02, 0.00, -137537.20, 0.00, 0.00, 0.00, 0.00, 0.00, 10:50:48.973
173, 5820.48, 0.00, 0.00, -187500.02, 0.00, -138279.38, 0.00, 0.00, 0.00, 0.00, 0.00, 10:50:48.976
174, -291.58, 0.00, 0.00, -187500.02, 0.00, -139729.94, 0.00, 0.00, 0.00, 0.00, 0.00, 10:50:48.980
175, 4245.47, 0.00, 0.00, -187500.02, 0.00, -138666.70, 0.00, 0.00, 0.00, 0.00, 0.00, 10:50:48.983
176, 9027.94, 0.00, 0.00, -187500.02, 0.00, -137529.70, 0.00, 0.00, 0.00, 0.00, 0.00, 10:50:48.988
177, 6922.96, 0.00, 0.00, -187500.02, 0.00, -138035.41, 0.00, 0.00, 0.00, 0.00, 0.00, 10:50:48.992
178, 237.40, 0.00, 0.00, -187500.02, 0.00, -139631.28, 0.00, 0.00, -0.12, -0.54, 0.84, 10:50:48.996
179, 2749.98, 0.00, 0.00, -187500.02, 0.00, -139025.75, 0.00, 0.00, 0.00, 0.00, 0.00, 10:50:48.999
180, 8848.25, 0.00, 0.00, -187500.02, 0.00, -137588.22, 0.00, 0.00, 0.00, 0.00, 0.00, 10:50:49.003
181, 7760.46, 0.00, 0.00, -187500.02, 0.00, -137879.34, 0.00, 0.00, 0.00, 0.00, 0.00, 10:50:49.007
182, 1157.26, 0.00, 0.00, -187500.02, 0.00, -139431.81, 0.00, 0.00, 0.00, 0.00, 0.00, 10:50:49.011
183, 1393.85, 0.00, 0.00, -187500.02, 0.00, -139370.77, 0.00, 0.00, 0.00, 0.00, 0.00, 10:50:49.015
184, 8393.50, 0.00, 0.00, -187500.02, 0.00, -137693.45, 0.00, 0.00, 0.00, 0.00, 0.00, 10:50:49.020
185, 8376.72, 0.00, 0.00, -187500.02, 0.00, -137703.11, 0.00, 0.00, 0.00, 0.00, 0.00, 10:50:49.024
186, 2357.13, 0.00, 0.00, -187500.02, 0.00, -139144.23, 0.00, 0.00, 0.00, 0.00, 0.00, 10:50:49.028
187, 265.38, 0.00, 0.00, -187500.02, 0.00, -139630.19, 0.00, 0.00, 0.00, 0.00, 0.00, 10:50:49.031
188, 7670.92, 0.00, 0.00, -187500.02, 0.00, -137872.02, 0.00, 0.00, -0.08, -0.51, 0.85, 10:50:49.035
189, 8853.12, 0.00, 0.00, -187500.02, 0.00, -137600.63, 0.00, 0.00, 0.00, 0.00, 0.00, 10:50:49.040
190, 3651.07, 0.00, 0.00, -187500.02, 0.00, -138824.28, 0.00, 0.00, 0.00, 0.00, 0.00, 10:50:49.045
191, -551.89, 0.00, 0.00, -187500.02, 0.00, -139796.92, 0.00, 0.00, 0.00, 0.00, 0.00, 10:50:49.049
192, 6582.45, 0.00, 0.00, -187500.02, 0.00, -138101.61, 0.00, 0.00, 0.00, 0.00, 0.00, 10:50:49.054
193, 9165.98, 0.00, 0.00, -187500.02, 0.00, -137519.13, 0.00, 0.00, 0.00, 0.00, 0.00, 10:50:49.057
194, 5000.58, 0.00, 0.00, -187500.02, 0.00, -138542.25, 0.00, 0.00, 0.00, 0.00, 0.00, 10:50:49.060
195, -816.82, 0.00, 0.00, -187500.02, 0.00, -139917.48, 0.00, 0.00, 0.00, 0.00, 0.00, 10:50:49.063
196, 5273.92, 0.00, 0.00, -187500.02, 0.00, -138455.17, 0.00, 0.00, 0.00, 0.00, 0.00, 10:50:49.067
197, 9324.45, 0.00, 0.00, -187500.02, 0.00, -137489.31, 0.00, 0.00, 0.00, 0.00, 0.00, 10:50:49.072
198, 6224.74, 0.00, 0.00, -187500.02, 0.00, -138230.92, 0.00, 0.00, -0.10, -0.55, 0.84, 10:50:49.076
199, -567.49, 0.00, 0.00, -187500.02, 0.00, -139852.38, 0.00, 0.00, 0.00, 0.00, 0.00, 10:50:49.080
200, 3768.68, 0.00, 0.00, -187500.02, 0.00, -138817.92, 0.00, 0.00, 0.00, 0.00, 0.00, 10:50:49.083
201, 9310.73, 0.00, 0.00, -187500.02, 0.00, -137513.94, 0.00, 0.00, 0.00, 0.00, 0.00, 10:50:49.087
202, 7305.15, 0.00, 0.00, -187500.02, 0.00, -137991.95, 0.00, 0.00, 0.00, 0.00, 0.00, 10:50:49.092
203, 164.44, 0.00, 0.00, -187500.02, 0.00, -139659.69, 0.00, 0.00, 0.00, 0.00, 0.00, 10:50:49.095
204, 2224.62, 0.00, 0.00, -187500.02, 0.00, -139157.95, 0.00, 0.00, 0.00, 0.00, 0.00, 10:50:49.100
205, 9017.92, 0.00, 0.00, -187500.02, 0.00, -137525.42, 0.00, 0.00, 0.00, 0.00, 0.00, 10:50:49.104
206, 8136.03, 0.00, 0.00, -187500.02, 0.00, -137749.34, 0.00, 0.00, 0.00, 0.00, 0.00, 10:50:49.109
207, 1278.94, 0.00, 0.00, -187500.02, 0.00, -139398.02, 0.00, 0.00, 0.00, 0.00, 0.00, 10:50:49.111
208, 802.85, 0.00, 0.00, -187500.02, 0.00, -139513.02, 0.00, 0.00, -0.11, -0.55, 0.85, 10:50:49.115
209, 8476.16, 0.00, 0.00, -187500.02, 0.00, -137702.41, 0.00, 0.00, 0.00, 0.00, 0.00, 10:50:49.120
210, 8771.14, 0.00, 0.00, -187500.02, 0.00, -137636.30, 0.00, 0.00, 0.00, 0.00, 0.00, 10:50:49.125
211, 2626.78, 0.00, 0.00, -187500.02, 0.00, -139128.03, 0.00, 0.00, 0.00, 0.00, 0.00, 10:50:49.128
212, -304.39, 0.00, 0.00, -187500.02, 0.00, -139823.05, 0.00, 0.00, 0.00, 0.00, 0.00, 10:50:49.132
213, 7568.64, 0.00, 0.00, -187500.02, 0.00, -137945.80, 0.00, 0.00, 0.00, 0.00, 0.00, 10:50:49.135
214, 9202.03, 0.00, 0.00, -187500.02, 0.00, -137537.77, 0.00, 0.00, 0.00, 0.00, 0.00, 10:50:49.140
215, 4039.76, 0.00, 0.00, -187500.02, 0.00, -138763.36, 0.00, 0.00, 0.00, 0.00, 0.00, 10:50:49.144
216, -925.38, 0.00, 0.00, -187500.02, 0.00, -139945.39, 0.00, 0.00, 0.00, 0.00, 0.00, 10:50:49.147
217, 6388.60, 0.00, 0.00, -187500.02, 0.00, -138192.98, 0.00, 0.00, -0.09, -0.54, 0.84, 10:50:49.151
218, 9511.65, 0.00, 0.00, -187500.02, 0.00, -137464.77, 0.00, 0.00, 0.00, 0.00, 0.00, 10:50:49.155
219, 5445.09, 0.00, 0.00, -187500.02, 0.00, -138416.97, 0.00, 0.00, 0.00, 0.00, 0.00, 10:50:49.161
220, -1035.85, 0.00, 0.00, -187500.02, 0.00, -139915.13, 0.00, 0.00, 0.00, 0.00, 0.00, 10:50:49.163
221, 4950.78, 0.00, 0.00, -187500.02, 0.00, -138501.27, 0.00, 0.00, 0.00, 0.00, 0.00, 10:50:49.167
222, 9637.80, 0.00, 0.00, -187500.02, 0.00, -137423.08, 0.00, 0.00, 0.00, 0.00, 0.00, 10:50:49.172
223, 6702.37, 0.00, 0.00, -187500.02, 0.00, -138141.80, 0.00, 0.00, 0.00, 0.00, 0.00, 10:50:49.175
224, -581.28, 0.00, 0.00, -187500.02, 0.00, -139858.69, 0.00, 0.00, 0.00, 0.00, 0.00, 10:50:49.179
225, 3355.42, 0.00, 0.00, -187500.02, 0.00, -138904.11, 0.00, 0.00, 0.00, 0.00, 0.00, 10:50:49.184
226, 9537.58, 0.00, 0.00, -187500.02, 0.00, -137449.80, 0.00, 0.00, 0.00, 0.00, 0.00, 10:50:49.189
227, 7725.28, 0.00, 0.00, -187500.02, 0.00, -137911.83, 0.00, 0.00, -0.06, -0.53, 0.85, 10:50:49.192
228, 303.22, 0.00, 0.00, -187500.02, 0.00, -139654.36, 0.00, 0.00, 0.00, 0.00, 0.00, 10:50:49.196
229, 1773.79, 0.00, 0.00, -187500.02, 0.00, -139268.89, 0.00, 0.00, 0.00, 0.00, 0.00, 10:50:49.201
230, 9143.92, 0.00, 0.00, -187500.02, 0.00, -137545.02, 0.00, 0.00, 0.00, 0.00, 0.00, 10:50:49.204
231, 8483.00, 0.00, 0.00, -187500.02, 0.00, -137698.86, 0.00, 0.00, 0.00, 0.00, 0.00, 10:50:49.207
232, 1566.70, 0.00, 0.00, -187500.02, 0.00, -139343.14, 0.00, 0.00, 0.00, 0.00, 0.00, 10:50:49.213
233, 414.22, 0.00, 0.00, -187500.02, 0.00, -139617.38, 0.00, 0.00, 0.00, 0.00, 0.00, 10:50:49.217
234, 8438.19, 0.00, 0.00, -187500.02, 0.00, -137697.16, 0.00, 0.00, 0.00, 0.00, 0.00, 10:50:49.220
235, 9051.52, 0.00, 0.00, -187500.02, 0.00, -137563.05, 0.00, 0.00, 0.00, 0.00, 0.00, 10:50:49.223
236, 3039.12, 0.00, 0.00, -187500.02, 0.00, -139022.61, 0.00, 0.00, 0.00, 0.00, 0.00, 10:50:49.228
237, -559.37, 0.00, 0.00, -187500.02, 0.00, -139872.89, 0.00, 0.00, -0.09, -0.53, 0.85, 10:50:49.231
238, 7381.17, 0.00, 0.00, -187500.02, 0.00, -137971.48, 0.00, 0.00, 0.00, 0.00, 0.00, 10:50:49.235
239, 9390.21, 0.00, 0.00, -187500.02, 0.00, -137505.41, 0.00, 0.00, 0.00, 0.00, 0.00, 10:50:49.241
240, 4476.79, 0.00, 0.00, -187500.02, 0.00, -138677.06, 0.00, 0.00, 0.00, 0.00, 0.00, 10:50:49.243
241, -1001.45, 0.00, 0.00, -187500.02, 0.00, -139985.75, 0.00, 0.00, 0.00, 0.00, 0.00, 10:50:49.247
242, 6002.72, 0.00, 0.00, -187500.02, 0.00, -138301.48, 0.00, 0.00, 0.00, 0.00, 0.00, 10:50:49.253
243, 9511.32, 0.00, 0.00, -187500.02, 0.00, -137454.55, 0.00, 0.00, 0.00, 0.00, 0.00, 10:50:49.255
244, 5802.87, 0.00, 0.00, -187500.02, 0.00, -138368.56, 0.00, 0.00, 0.00, 0.00, 0.00, 10:50:49.259
245, -878.33, 0.00, 0.00, -187500.02, 0.00, -139975.88, 0.00, 0.00, 0.00, 0.00, 0.00, 10:50:49.264
246, 4501.84, 0.00, 0.00, -187500.02, 0.00, -138671.84, 0.00, 0.00, 0.00, 0.00, 0.00, 10:50:49.267
247, 9533.09, 0.00, 0.00, -187500.02, 0.00, -137514.55, 0.00, 0.00, -0.07, -0.51, 0.86, 10:50:49.271
248, 6933.06, 0.00, 0.00, -187500.02, 0.00, -138149.80, 0.00, 0.00, 0.00, 0.00, 0.00, 10:50:49.276
249, -251.57, 0.00, 0.00, -187500.02, 0.00, -139853.16, 0.00, 0.00, 0.00, 0.00, 0.00, 10:50:49.281
250, 2909.24, 0.00, 0.00, -187500.02, 0.00, -139111.19, 0.00, 0.00, 0.00, 0.00, 0.00, 10:50:49.285
251, 9272.93, 0.00, 0.00, -187500.02, 0.00, -137582.22, 0.00, 0.00, 0.00, 0.00, 0.00, 10:50:49.288
252, 7823.87, 0.00, 0.00, -187500.02, 0.00, -137940.08, 0.00, 0.00, 0.00, 0.00, 0.00, 10:50:49.292
253, 787.43, 0.00, 0.00, -187500.02, 0.00, -139618.42, 0.00, 0.00, 0.00, 0.00, 0.00, 10:50:49.297
254, 1433.93, 0.00, 0.00, -187500.02, 0.00, -139470.09, 0.00, 0.00, 0.00, 0.00, 0.00, 10:50:49.300
255, 8775.47, 0.00, 0.00, -187500.02, 0.00, -137711.17, 0.00, 0.00, 0.00, 0.00, 0.00, 10:50:49.304
0, 8498.13, 0.00, 0.00, -187500.02, 0.00, -137773.17, 0.00, 0.00, -0.10, -0.52, 0.86, 10:50:49.307
1, 2124.89, 0.00, 0.00, -187500.02, 0.00, -139301.03, 0.00, 0.00, 0.00, 0.00, 0.00, 10:50:49.311
2, 296.21, 0.00, 0.00, -187500.02, 0.00, -139741.00, 0.00, 0.00, 0.00, 0.00, 0.00, 10:50:49.316
3, 7980.94, 0.00, 0.00, -187500.02, 0.00, -137902.69, 0.00, 0.00, 0.00, 0.00, 0.00, 10:50:49.320
4, 8949.21, 0.00, 0.00, -187500.02, 0.00, -137660.05, 0.00, 0.00, 0.00, 0.00, 0.00, 10:50:49.323
5, 3551.85, 0.00, 0.00, -187500.02, 0.00, -138933.50, 0.00, 0.00, 0.00, 0.00, 0.00, 10:50:49.327
6, -375.64, 0.00, 0.00, -187500.02, 0.00, -139858.23, 0.00, 0.00, 0.00, 0.00, 0.00, 10:50:49.331
7, 6844.06, 0.00, 0.00, -187500.02, 0.00, -138145.67, 0.00, 0.00, 0.00, 0.00, 0.00, 10:50:49.334
8, 8887.19, 0.00, 0.00, -187500.02, 0.00, -137673.36, 0.00, 0.00, 0.00, 0.00, 0.00, 10:50:49.340
9, 4591.90, 0.00, 0.00, -187500.02, 0.00, -138685.78, 0.00, 0.00, 0.00, 0.00, 0.00, 10:50:49.344
10, -465.16, 0.00, 0.00, -187500.02, 0.00, -139901.02, 0.00, 0.00, -0.09, -0.51, 0.87, 10:50:49.347
11, 5811.10, 0.00, 0.00, -187500.02, 0.00, -138429.64, 0.00, 0.00, 0.00, 0.00, 0.00, 10:50:49.351
12, 9011.91, 0.00, 0.00, -187500.02, 0.00, -137683.25, 0.00, 0.00, 0.00, 0.00, 0.00, 10:50:49.356
13, 5702.40, 0.00, 0.00, -187500.02, 0.00, -138472.25, 0.00, 0.00, 0.00, 0.00, 0.00, 10:50:49.359
14, -107.18, 0.00, 0.00, -187500.02, 0.00, -139819.70, 0.00, 0.00, 0.00, 0.00, 0.00, 10:50:49.364
15, 4697.20, 0.00, 0.00, -187500.02, 0.00, -138658.39, 0.00, 0.00, 0.00, 0.00, 0.00, 10:50:49.369
16, 8949.44, 0.00, 0.00, -187500.02, 0.00, -137632.83, 0.00, 0.00, 0.00, 0.00, 0.00, 10:50:49.373
17, 6471.37, 0.00, 0.00, -187500.02, 0.00, -138229.03, 0.00, 0.00, 0.00, 0.00, 0.00, 10:50:49.376
18, 504.77, 0.00, 0.00, -187500.02, 0.00, -139643.14, 0.00, 0.00, 0.00, 0.00, 0.00, 10:50:49.380
19, 3604.64, 0.00, 0.00, -187500.02, 0.00, -138899.95, 0.00, 0.00, 0.00, 0.00, 0.00, 10:50:49.384
20, 8976.55, 0.00, 0.00, -187500.02, 0.00, -137652.05, 0.00, 0.00, -0.10, -0.47, 0.87, 10:50:49.386
21, 7223.48, 0.00, 0.00, -187500.02, 0.00, -138086.25, 0.00, 0.00, 0.00, 0.00, 0.00, 10:50:49.391
22, 1277.38, 0.00, 0.00, -187500.02, 0.00, -139479.95, 0.00, 0.00, 0.00, 0.00, 0.00, 10:50:49.394
23, 2215.48, 0.00, 0.00, -187500.02, 0.00, -139224.56, 0.00, 0.00, 0.00, 0.00, 0.00, 10:50:49.399
24, 8662.69, 0.00, 0.00, -187500.02, 0.00, -137692.75, 0.00, 0.00, 0.00, 0.00, 0.00, 10:50:49.404
25, 7888.35, 0.00, 0.00, -187500.02, 0.00, -137899.11, 0.00, 0.00, 0.00, 0.00, 0.00, 10:50:49.406
26, 2309.45, 0.00, 0.00, -187500.02, 0.00, -139203.28, 0.00, 0.00, 0.00, 0.00, 0.00, 10:50:49.410
27, 1047.05, 0.00, 0.00, -187500.02, 0.00, -139497.64, 0.00, 0.00, 0.00, 0.00, 0.00, 10:50:49.415
28, 8125.57, 0.00, 0.00, -187500.02, 0.00, -137829.81, 0.00, 0.00, 0.00, 0.00, 0.00, 10:50:49.418
29, 8473.50, 0.00, 0.00, -187500.02, 0.00, -137743.42, 0.00, 0.00, 0.00, 0.00, 0.00, 10:50:49.423
30, 3438.32, 0.00, 0.00, -187500.02, 0.00, -138929.52, 0.00, 0.00, -0.08, -0.51, 0.87, 10:50:49.427
31, 73.54, 0.00, 0.00, -187500.02, 0.00, -139739.41, 0.00, 0.00, 0.00, 0.00, 0.00, 10:50:49.431
32, 7272.23, 0.00, 0.00, -187500.02, 0.00, -138027.69, 0.00, 0.00, 0.00, 0.00, 0.00, 10:50:49.435
33, 8993.51, 0.00, 0.00, -187500.02, 0.00, -137633.81, 0.00, 0.00, 0.00, 0.00, 0.00, 10:50:49.439
34, 4676.50, 0.00, 0.00, -187500.02, 0.00, -138665.33, 0.00, 0.00, 0.00, 0.00, 0.00, 10:50:49.443
35, -458.43, 0.00, 0.00, -187500.02, 0.00, -139893.69, 0.00, 0.00, 0.00, 0.00, 0.00, 10:50:49.448
36, 6095.79, 0.00, 0.00, -187500.02, 0.00, -138335.25, 0.00, 0.00, 0.00, 0.00, 0.00, 10:50:49.452
37, 9475.87, 0.00, 0.00, -187500.02, 0.00, -137519.19, 0.00, 0.00, 0.00, 0.00, 0.00, 10:50:49.457
38, 5895.36, 0.00, 0.00, -187500.02, 0.00, -138374.33, 0.00, 0.00, 0.00, 0.00, 0.00, 10:50:49.459
39, -583.36, 0.00, 0.00, -187500.02, 0.00, -139897.70, 0.00, 0.00, 0.00, 0.00, 0.00, 10:50:49.463
40, 4492.01, 0.00, 0.00, -187500.02, 0.00, -138698.73, 0.00, 0.00, -0.11, -0.52, 0.88, 10:50:49.467
41, 9839.71, 0.00, 0.00, -187500.02, 0.00, -137433.92, 0.00, 0.00, 0.00, 0.00, 0.00, 10:50:49.472
42, 7150.08, 0.00, 0.00, -187500.02, 0.00, -138079.03, 0.00, 0.00, 0.00, 0.00, 0.00, 10:50:49.474
43, 17.23, 0.00, 0.00, -187500.02, 0.00, -139776.67, 0.00, 0.00, 0.00, 0.00, 0.00, 10:50:49.479
44, 2708.63, 0.00, 0.00, -187500.02, 0.00, -139138.73, 0.00, 0.00, 0.00, 0.00, 0.00, 10:50:49.483
45, 9702.56, 0.00, 0.00, -187500.02, 0.00, -137484.77, 0.00, 0.00, 0.00, 0.00, 0.00, 10:50:49.486
46, 8089.86, 0.00, 0.00, -187500.02, 0.00, -137858.09, 0.00, 0.00, 0.00, 0.00, 0.00, 10:50:49.490
47, 875.09, 0.00, 0.00, -187500.02, 0.00, -139563.84, 0.00, 0.00, 0.00, 0.00, 0.00, 10:50:49.495
48, 458.52, 0.00, 0.00, -187500.02, 0.00, -139635.23, 0.00, 0.00, 0.00, 0.00, 0.00, 10:50:49.499
49, 8926.15, 0.00, 0.00, -187500.02, 0.00, -137586.38, 0.00, 0.00, -0.08, -0.50, 0.96, 10:50:49.502
50, 8969.20, 0.00, 0.00, -187500.02, 0.00, -137585.84, 0.00, 0.00, 0.00, 0.00, 0.00, 10:50:49.506
51, 2610.37, 0.00, 0.00, -187500.02, 0.00, -139120.34, 0.00, 0.00, 0.00, 0.00, 0.00, 10:50:49.511
52, -383.47, 0.00, 0.00, -187500.02, 0.00, -139846.48, 0.00, 0.00, 0.00, 0.00, 0.00, 10:50:49.515
53, 8137.78, 0.00, 0.00, -187500.02, 0.00, -137827.13, 0.00, 0.00, 0.00, 0.00, 0.00, 10:50:49.518
54, 9625.31, 0.00, 0.00, -187500.02, 0.00, -137472.86, 0.00, 0.00, 0.00, 0.00, 0.00, 10:50:49.523
55, 4344.33, 0.00, 0.00, -187500.02, 0.00, -138714.61, 0.00, 0.00, 0.00, 0.00, 0.00, 10:50:49.526
56, -688.66, 0.00, 0.00, -187500.02, 0.00, -139904.03, 0.00, 0.00, 0.00, 0.00, 0.00, 10:50:49.531
57, 6961.79, 0.00, 0.00, -187500.02, 0.00, -138096.78, 0.00, 0.00, 0.00, 0.00, 0.00, 10:50:49.535
58, 9938.75, 0.00, 0.00, -187500.02, 0.00, -137419.45, 0.00, 0.00, 0.00, 0.00, 0.00, 10:50:49.541
59, 5807.01, 0.00, 0.00, -187500.02, 0.00, -138413.19, 0.00, 0.00, -0.09, -0.61, 0.88, 10:50:49.544
60, -276.54, 0.00, 0.00, -187500.02, 0.00, -139818.41, 0.00, 0.00, 0.00, 0.00, 0.00, 10:50:49.548
61, 5847.73, 0.00, 0.00, -187500.02, 0.00, -138322.92, 0.00, 0.00, 0.00, 0.00, 0.00, 10:50:49.551
62, 10118.57, 0.00, 0.00, -187500.02, 0.00, -137354.92, 0.00, 0.00, 0.00, 0.00, 0.00, 10:50:49.555
63, 6939.21, 0.00, 0.00, -187500.02, 0.00, -138125.13, 0.00, 0.00, 0.00, 0.00, 0.00, 10:50:49.558
64, 484.45, 0.00, 0.00, -187500.02, 0.00, -139635.97, 0.00, 0.00, 0.00, 0.00, 0.00, 10:50:49.563
65, 4538.57, 0.00, 0.00, -187500.02, 0.00, -138676.55, 0.00, 0.00, 0.00, 0.00, 0.00, 10:50:49.568
66, 9793.95, 0.00, 0.00, -187500.02, 0.00, -137453.09, 0.00, 0.00, 0.00, 0.00, 0.00, 10:50:49.570
67, 7750.15, 0.00, 0.00, -187500.02, 0.00, -137966.83, 0.00, 0.00, 0.00, 0.00, 0.00, 10:50:49.574
68, 2192.57, 0.00, 0.00, -187500.02, 0.00, -139270.14, 0.00, 0.00, 0.00, 0.00, 0.00, 10:50:49.579
69, 3574.29, 0.00, 0.00, -187500.02, 0.00, -138923.64, 0.00, 0.00, -0.01, -0.61, 0.86, 10:50:49.582
70, 8923.33, 0.00, 0.00, -187500.02, 0.00, -137690.41, 0.00, 0.00, 0.00, 0.00, 0.00, 10:50:49.587
71, 8109.26, 0.00, 0.00, -187500.02, 0.00, -137895.17, 0.00, 0.00, 0.00, 0.00, 0.00, 10:50:49.591
72, 3780.46, 0.00, 0.00, -187500.02, 0.00, -138893.64, 0.00, 0.00, 0.00, 0.00, 0.00, 10:50:49.594
73, 3269.57, 0.00, 0.00, -187500.02, 0.00, -139021.36, 0.00, 0.00, 0.00, 0.00, 0.00, 10:50:49.598
74, 8192.16, 0.00, 0.00, -187500.02, 0.00, -137877.27, 0.00, 0.00, 0.00, 0.00, 0.00, 10:50:49.602
75, 8252.73, 0.00, 0.00, -187500.02, 0.00, -137902.81, 0.00, 0.00, 0.00, 0.00, 0.00, 10:50:49.607
76, 4972.53, 0.00, 0.00, -187500.02, 0.00, -138686.80, 0.00, 0.00, 0.00, 0.00, 0.00, 10:50:49.610
77, 3137.16, 0.00, 0.00, -187500.02, 0.00, -139103.42, 0.00, 0.00, 0.00, 0.00, 0.00, 10:50:49.615
78, 7400.91, 0.00, 0.00, -187500.02, 0.00, -138084.80, 0.00, 0.00, 0.00, 0.00, 0.00, 10:50:49.619
79, 8313.98, 0.00, 0.00, -187500.02, 0.00, -137893.36, 0.00, 0.00, 0.03, -0.54, 0.89, 10:50:49.623
80, 5891.34, 0.00, 0.00, -187500.02, 0.00, -138501.53, 0.00, 0.00, 0.00, 0.00, 0.00, 10:50:49.628
81, 3261.97, 0.00, 0.00, -187500.02, 0.00, -139105.34, 0.00, 0.00, 0.00, 0.00, 0.00, 10:50:49.630
82, 6685.61, 0.00, 0.00, -187500.02, 0.00, -138310.91, 0.00, 0.00, 0.00, 0.00, 0.00, 10:50:49.635
83, 8380.52, 0.00, 0.00, -187500.02, 0.00, -137933.97, 0.00, 0.00, 0.00, 0.00, 0.00, 10:50:49.640
84, 6616.72, 0.00, 0.00, -187500.02, 0.00, -138335.02, 0.00, 0.00, 0.00, 0.00, 0.00, 10:50:49.644
85, 3427.15, 0.00, 0.00, -187500.02, 0.00, -139064.48, 0.00, 0.00, 0.00, 0.00, 0.00, 10:50:49.646
86, 5901.08, 0.00, 0.00, -187500.02, 0.00, -138480.98, 0.00, 0.00, 0.00, 0.00, 0.00, 10:50:49.651
87, 8473.26, 0.00, 0.00, -187500.02, 0.00, -137926.86, 0.00, 0.00, 0.00, 0.00, 0.00, 10:50:49.654
88, 7233.47, 0.00, 0.00, -187500.02, 0.00, -138251.38, 0.00, 0.00, 0.00, 0.00, 0.00, 10:50:49.657
89, 3652.30, 0.00, 0.00, -187500.02, 0.00, -139088.84, 0.00, 0.00, 0.04, -0.45, 0.86, 10:50:49.663
90, 5144.95, 0.00, 0.00, -187500.02, 0.00, -138702.36, 0.00, 0.00, 0.00, 0.00, 0.00, 10:50:49.667
91, 8541.70, 0.00, 0.00, -187500.02, 0.00, -137937.11, 0.00, 0.00, 0.00, 0.00, 0.00, 10:50:49.671
92, 7687.79, 0.00, 0.00, -187500.02, 0.00, -138136.59, 0.00, 0.00, 0.00, 0.00, 0.00, 10:50:49.675
93, 3899.89, 0.00, 0.00, -187500.02, 0.00, -139030.28, 0.00, 0.00, 0.00, 0.00, 0.00, 10:50:49.678
94, 4223.23, 0.00, 0.00, -187500.02, 0.00, -138963.11, 0.00, 0.00, 0.00, 0.00, 0.00, 10:50:49.682
95, 8453.63, 0.00, 0.00, -187500.02, 0.00, -138005.80, 0.00, 0.00, 0.00, 0.00, 0.00, 10:50:49.686
96, 8181.79, 0.00, 0.00, -187500.02, 0.00, -138094.03, 0.00, 0.00, 0.00, 0.00, 0.00, 10:50:49.692
97, 4528.82, 0.00, 0.00, -187500.02, 0.00, -138960.67, 0.00, 0.00, 0.00, 0.00, 0.00, 10:50:49.695
98, 3472.08, 0.00, 0.00, -187500.02, 0.00, -139245.47, 0.00, 0.00, 0.12, -0.36, 0.83, 10:50:49.699
99, 8061.92, 0.00, 0.00, -187500.02, 0.00, -138193.83, 0.00, 0.00, 0.00, 0.00, 0.00, 10:50:49.704
100, 8424.55, 0.00, 0.00, -187500.02, 0.00, -138106.47, 0.00, 0.00, 0.00, 0.00, 0.00, 10:50:49.708
101, 5222.57, 0.00, 0.00, -187500.02, 0.00, -138868.75, 0.00, 0.00, 0.00, 0.00, 0.00, 10:50:49.711
102, 2974.64, 0.00, 0.00, -187500.02, 0.00, -139400.72, 0.00, 0.00, 0.00, 0.00, 0.00, 10:50:49.714
103, 7426.37, 0.00, 0.00, -187500.02, 0.00, -138369.75, 0.00, 0.00, 0.00, 0.00, 0.00, 10:50:49.718
104, 8606.05, 0.00, 0.00, -187500.02, 0.00, -138107.73, 0.00, 0.00, 0.00, 0.00, 0.00, 10:50:49.723
105, 5961.55, 0.00, 0.00, -187500.02, 0.00, -138707.91, 0.00, 0.00, 0.00, 0.00, 0.00, 10:50:49.727
106, 2807.24, 0.00, 0.00, -187500.02, 0.00, -139456.70, 0.00, 0.00, 0.00, 0.00, 0.00, 10:50:49.730
107, 6600.69, 0.00, 0.00, -187500.02, 0.00, -138564.31, 0.00, 0.00, 0.00, 0.00, 0.00, 10:50:49.734
108, 8676.75, 0.00, 0.00, -187500.02, 0.00, -138126.05, 0.00, 0.00, 0.15, -0.37, 0.82, 10:50:49.737
109, 6662.14, 0.00, 0.00, -187500.02, 0.00, -138630.63, 0.00, 0.00, 0.00, 0.00, 0.00, 10:50:49.742
110, 2954.68, 0.00, 0.00, -187500.02, 0.00, -139490.23, 0.00, 0.00, 0.00, 0.00, 0.00, 10:50:49.746
111, 5652.11, 0.00, 0.00, -187500.02, 0.00, -138861.02, 0.00, 0.00, 0.00, 0.00, 0.00, 10:50:49.751
112, 8578.60, 0.00, 0.00, -187500.02, 0.00, -138158.61, 0.00, 0.00, 0.00, 0.00, 0.00, 10:50:49.754
113, 7189.26, 0.00, 0.00, -187500.02, 0.00, -138508.48, 0.00, 0.00, 0.00, 0.00, 0.00, 10:50:49.758
114, 3386.09, 0.00, 0.00, -187500.02, 0.00, -139428.30, 0.00, 0.00, 0.00, 0.00, 0.00, 10:50:49.762
115, 4687.36, 0.00, 0.00, -187500.02, 0.00, -139117.86, 0.00, 0.00, 0.00, 0.00, 0.00, 10:50:49.766
116, 8311.12, 0.00, 0.00, -187500.02, 0.00, -138288.88, 0.00, 0.00, 0.00, 0.00, 0.00, 10:50:49.770
117, 7570.60, 0.00, 0.00, -187500.02, 0.00, -138495.77, 0.00, 0.00, 0.00, 0.00, 0.00, 10:50:49.774
118, 4006.37, 0.00, 0.00, -187500.02, 0.00, -139304.67, 0.00, 0.00, 0.16, -0.38, 0.86, 10:50:49.779
119, 3839.43, 0.00, 0.00, -187500.02, 0.00, -139354.34, 0.00, 0.00, 0.00, 0.00, 0.00, 10:50:49.782
120, 7745.91, 0.00, 0.00, -187500.02, 0.00, -138477.45, 0.00, 0.00, 0.00, 0.00, 0.00, 10:50:49.786
121, 7714.30, 0.00, 0.00, -187500.02, 0.00, -138487.72, 0.00, 0.00, 0.00, 0.00, 0.00, 10:50:49.790
122, 4777.89, 0.00, 0.00, -187500.02, 0.00, -139162.09, 0.00, 0.00, 0.00, 0.00, 0.00, 10:50:49.794
123, 3356.83, 0.00, 0.00, -187500.02, 0.00, -139474.48, 0.00, 0.00, 0.00, 0.00, 0.00, 10:50:49.797
124, 6956.98, 0.00, 0.00, -187500.02, 0.00, -138658.48, 0.00, 0.00, 0.00, 0.00, 0.00, 10:50:49.802
125, 7672.64, 0.00, 0.00, -187500.02, 0.00, -138518.27, 0.00, 0.00, 0.00, 0.00, 0.00, 10:50:49.806
126, 5454.34, 0.00, 0.00, -187500.02, 0.00, -139040.05, 0.00, 0.00, 0.00, 0.00, 0.00, 10:50:49.811
127, 3261.61, 0.00, 0.00, -187500.02, 0.00, -139536.77, 0.00, 0.00, 0.00, 0.00, 0.00, 10:50:49.814
128, 6085.73, 0.00, 0.00, -187500.02, 0.00, -138883.59, 0.00, 0.00, 0.15, -0.38, 0.87, 10:50:49.819
129, 7465.91, 0.00, 0.00, -187500.02, 0.00, -138564.63, 0.00, 0.00, 0.00, 0.00, 0.00, 10:50:49.823
130, 5930.28, 0.00, 0.00, -187500.02, 0.00, -138915.53, 0.00, 0.00, 0.00, 0.00, 0.00, 10:50:49.828
131, 3435.15, 0.00, 0.00, -187500.02, 0.00, -139484.52, 0.00, 0.00, 0.00, 0.00, 0.00, 10:50:49.831
132, 5295.11, 0.00, 0.00, -187500.02, 0.00, -139079.17, 0.00, 0.00, 0.00, 0.00, 0.00, 10:50:49.835
133, 7180.79, 0.00, 0.00, -187500.02, 0.00, -138672.05, 0.00, 0.00, 0.00, 0.00, 0.00, 10:50:49.838
134, 6213.25, 0.00, 0.00, -187500.02, 0.00, -138902.55, 0.00, 0.00, 0.00, 0.00, 0.00, 10:50:49.841
135, 3749.75, 0.00, 0.00, -187500.02, 0.00, -139429.55, 0.00, 0.00, 0.00, 0.00, 0.00, 10:50:49.846
136, 4642.39, 0.00, 0.00, -187500.02, 0.00, -139230.63, 0.00, 0.00, 0.00, 0.00, 0.00, 10:50:49.850
137, 6850.12, 0.00, 0.00, -187500.02, 0.00, -138765.69, 0.00, 0.00, 0.14, -0.39, 0.91, 10:50:49.854
138, 6366.49, 0.00, 0.00, -187500.02, 0.00, -138895.66, 0.00, 0.00, 0.00, 0.00, 0.00, 10:50:49.858
139, 4135.39, 0.00, 0.00, -187500.02, 0.00, -139397.77, 0.00, 0.00, 0.00, 0.00, 0.00, 10:50:49.863
140, 4144.37, 0.00, 0.00, -187500.02, 0.00, -139408.52, 0.00, 0.00, 0.00, 0.00, 0.00, 10:50:49.865
141, 6462.43, 0.00, 0.00, -187500.02, 0.00, -138895.05, 0.00, 0.00, 0.00, 0.00, 0.00, 10:50:49.869
142, 6445.53, 0.00, 0.00, -187500.02, 0.00, -138917.19, 0.00, 0.00, 0.00, 0.00, 0.00, 10:50:49.874
143, 4522.67, 0.00, 0.00, -187500.02, 0.00, -139337.39, 0.00, 0.00, 0.00, 0.00, 0.00, 10:50:49.878
144, 3779.99, 0.00, 0.00, -187500.02, 0.00, -139499.84, 0.00, 0.00, 0.00, 0.00, 0.00, 10:50:49.882
145, 6014.00, 0.00, 0.00, -187500.02, 0.00, -139005.03, 0.00, 0.00, 0.00, 0.00, 0.00, 10:50:49.886
146, 6430.89, 0.00, 0.00, -187500.02, 0.00, -138910.97, 0.00, 0.00, 0.00, 0.00, 0.00, 10:50:49.891
147, 4840.87, 0.00, 0.00, -187500.02, 0.00, -139265.88, 0.00, 0.00, 0.12, -0.39, 0.92, 10:50:49.894
148, 3517.20, 0.00, 0.00, -187500.02, 0.00, -139567.38, 0.00, 0.00, 0.00, 0.00, 0.00, 10:50:49.897
149, 5532.57, 0.00, 0.00, -187500.02, 0.00, -139111.64, 0.00, 0.00, 0.00, 0.00, 0.00, 10:50:49.902
150, 6414.26, 0.00, 0.00, -187500.02, 0.00, -138918.33, 0.00, 0.00, 0.00, 0.00, 0.00, 10:50:49.906
151, 5144.97, 0.00, 0.00, -187500.02, 0.00, -139202.41, 0.00, 0.00, 0.00, 0.00, 0.00, 10:50:49.910
152, 3404.35, 0.00, 0.00, -187500.02, 0.00, -139609.08, 0.00, 0.00, 0.00, 0.00, 0.00, 10:50:49.914
153, 5023.08, 0.00, 0.00, -187500.02, 0.00, -139258.97, 0.00, 0.00, 0.00, 0.00, 0.00, 10:50:49.919
154, 6366.76, 0.00, 0.00, -187500.02, 0.00, -138952.83, 0.00, 0.00, 0.00, 0.00, 0.00, 10:50:49.922
155, 5449.67, 0.00, 0.00, -187500.02, 0.00, -139157.19, 0.00, 0.00, 0.00, 0.00, 0.00, 10:50:49.925
156, 3443.15, 0.00, 0.00, -187500.02, 0.00, -139610.64, 0.00, 0.00, 0.00, 0.00, 0.00, 10:50:49.930
157, 4446.75, 0.00, 0.00, -187500.02, 0.00, -139395.69, 0.00, 0.00, 0.12, -0.39, 0.92, 10:50:49.934
158, 6262.80, 0.00, 0.00, -187500.02, 0.00, -138991.97, 0.00, 0.00, 0.00, 0.00, 0.00, 10:50:49.938
159, 5728.17, 0.00, 0.00, -187500.02, 0.00, -139099.44, 0.00, 0.00, 0.00, 0.00, 0.00, 10:50:49.942
160, 3657.91, 0.00, 0.00, -187500.02, 0.00, -139549.16, 0.00, 0.00, 0.00, 0.00, 0.00, 10:50:49.946
161, 3927.96, 0.00, 0.00, -187500.02, 0.00, -139501.97, 0.00, 0.00, 0.00, 0.00, 0.00, 10:50:49.950
162, 6034.50, 0.00, 0.00, -187500.02, 0.00, -139003.77, 0.00, 0.00, 0.00, 0.00, 0.00, 10:50:49.953
163, 5946.46, 0.00, 0.00, -187500.02, 0.00, -139017.03, 0.00, 0.00, 0.00, 0.00, 0.00, 10:50:49.957
164, 4066.14, 0.00, 0.00, -187500.02, 0.00, -139431.81, 0.00, 0.00, 0.00, 0.00, 0.00, 10:50:49.963
165, 3534.12, 0.00, 0.00, -187500.02, 0.00, -139529.59, 0.00, 0.00, 0.00, 0.00, 0.00, 10:50:49.966
166, 5691.98, 0.00, 0.00, -187500.02, 0.00, -139052.50, 0.00, 0.00, 0.00, 0.00, 0.00, 10:50:49.970
167, 6048.09, 0.00, 0.00, -187500.02, 0.00, -138955.34, 0.00, 0.00, 0.10, -0.43, 0.93, 10:50:49.974
168, 4550.08, 0.00, 0.00, -187500.02, 0.00, -139290.28, 0.00, 0.00, 0.00, 0.00, 0.00, 10:50:49.978
169, 3366.44, 0.00, 0.00, -187500.02, 0.00, -139538.98, 0.00, 0.00, 0.00, 0.00, 0.00, 10:50:49.981
170, 5197.81, 0.00, 0.00, -187500.02, 0.00, -139113.61, 0.00, 0.00, 0.00, 0.00, 0.00, 10:50:49.986
171, 6051.91, 0.00, 0.00, -187500.02, 0.00, -138916.91, 0.00, 0.00, 0.00, 0.00, 0.00, 10:50:49.990
172, 4997.60, 0.00, 0.00, -187500.02, 0.00, -139147.83, 0.00, 0.00, 0.00, 0.00, 0.00, 10:50:49.994
173, 3433.97, 0.00, 0.00, -187500.02, 0.00, -139487.22, 0.00, 0.00, 0.00, 0.00, 0.00, 10:50:49.998
174, 4724.47, 0.00, 0.00, -187500.02, 0.00, -139216.61, 0.00, 0.00, 0.00, 0.00, 0.00, 10:50:50.001
175, 5970.17, 0.00, 0.00, -187500.02, 0.00, -138928.48, 0.00, 0.00, 0.00, 0.00, 0.00, 10:50:50.005
176, 5283.64, 0.00, 0.00, -187500.02, 0.00, -139064.84, 0.00, 0.00, 0.00, 0.00, 0.00, 10:50:50.009
177, 3618.41, 0.00, 0.00, -187500.02, 0.00, -139424.08, 0.00, 0.00, 0.13, -0.42, 0.92, 10:50:50.013
178, 4373.30, 0.00, 0.00, -187500.02, 0.00, -139274.86, 0.00, 0.00, 0.00, 0.00, 0.00, 10:50:50.018
179, 5866.19, 0.00, 0.00, -187500.02, 0.00, -138923.34, 0.00, 0.00, 0.00, 0.00, 0.00, 10:50:50.022
180, 5472.15, 0.00, 0.00, -187500.02, 0.00, -139009.00, 0.00, 0.00, 0.00, 0.00, 0.00, 10:50:50.027
181, 3797.54, 0.00, 0.00, -187500.02, 0.00, -139379.48, 0.00, 0.00, 0.00, 0.00, 0.00, 10:50:50.029
182, 4024.97, 0.00, 0.00, -187500.02, 0.00, -139350.92, 0.00, 0.00, 0.00, 0.00, 0.00, 10:50:50.033
183, 5744.51, 0.00, 0.00, -187500.02, 0.00, -138988.81, 0.00, 0.00, 0.00, 0.00, 0.00, 10:50:50.038
184, 5622.83, 0.00, 0.00, -187500.02, 0.00, -138992.44, 0.00, 0.00, 0.00, 0.00, 0.00, 10:50:50.041
185, 4014.91, 0.00, 0.00, -187500.02, 0.00, -139338.89, 0.00, 0.00, 0.00, 0.00, 0.00, 10:50:50.046
186, 3685.27, 0.00, 0.00, -187500.02, 0.00, -139445.88, 0.00, 0.00, 0.13, -0.42, 0.91, 10:50:50.050
187, 5535.16, 0.00, 0.00, -187500.02, 0.00, -139055.88, 0.00, 0.00, 0.00, 0.00, 0.00, 10:50:50.054
188, 5789.24, 0.00, 0.00, -187500.02, 0.00, -138983.17, 0.00, 0.00, 0.00, 0.00, 0.00, 10:50:50.058
