%OpenBCI Raw EEG Data
%
%Sample Rate = 250.0 Hz
%First Column = SampleIndex
%Last Column = Timestamp 
%Other Columns = EEG data in microvolts followed by Accel Data (in G) interleaved with Aux Data
0, -187500.02, -187500.02, -187500.02, -186877.50, -187500.02, -187500.02, -186331.83, -187500.02, 0.02, 0.21, 0.45, 16:32:20.296
1, -187500.02, -187500.02, -187500.02, -186882.45, -187500.02, -187500.02, -186330.94, -187500.02, 0.00, 0.00, 0.00, 16:32:20.299
2, -187500.02, -187500.02, -187500.02, -186893.59, -187500.02, -187500.02, -186334.78, -187500.02, 0.00, 0.00, 0.00, 16:32:20.304
4, -187500.02, -187500.02, -187500.02, -186888.27, -187500.02, -187500.02, -186322.69, -187500.02, 0.00, 0.00, 0.00, 16:32:20.310
5, -187500.02, -187500.02, -187500.02, -186891.56, -187500.02, -187500.02, -186320.92, -187500.02, 0.00, 0.00, 0.00, 16:32:20.317
6, -187500.02, -187500.02, -187500.02, -186902.08, -187500.02, -187500.02, -186324.78, -187500.02, 0.04, 0.42, 0.93, 16:32:20.320
7, -187500.02, -187500.02, -187500.02, -186905.84, -187500.02, -187500.02, -186323.05, -187500.02, 0.00, 0.00, 0.00, 16:32:20.324
8, -187500.02, -187500.02, -187500.02, -186897.03, -187500.02, -187500.02, -186311.44, -187500.02, 0.00, 0.00, 0.00, 16:32:20.328
9, -187500.02, -187500.02, -187500.02, -186897.50, -187500.02, -187500.02, -186306.86, -187500.02, 0.00, 0.00, 0.00, 16:32:20.332
10, -187500.02, -187500.02, -187500.02, -186907.89, -187500.02, -187500.02, -186309.70, -187500.02, 0.00, 0.00, 0.00, 16:32:20.336
11, -187500.02, -187500.02, -187500.02, -186915.25, -187500.02, -187500.02, -186310.45, -187500.02, 0.00, 0.00, 0.00, 16:32:20.339
12, -187500.02, -187500.02, -187500.02, -186909.33, -187500.02, -187500.02, -186302.47, -187500.02, 0.00, 0.00, 0.00, 16:32:20.342
13, -187500.02, -187500.02, -187500.02, -186907.16, -187500.02, -187500.02, -186296.95, -187500.02, 0.00, 0.00, 0.00, 16:32:20.349
14, -187500.02, -187500.02, -187500.02, -186916.72, -187500.02, -187500.02, -186299.22, -187500.02, 0.00, 0.00, 0.00, 16:32:20.352
15, -187500.02, -187500.02, -187500.02, -186925.42, -187500.02, -187500.02, -186301.20, -187500.02, 0.00, 0.00, 0.00, 16:32:20.356
16, -187500.02, -187500.02, -187500.02, -186918.22, -187500.02, -187500.02, -186290.41, -187500.02, 0.05, 0.42, 0.92, 16:32:20.359
19, -187500.02, -187500.02, -187500.02, -186931.80, -187500.02, -187500.02, -186288.64, -187500.02, 0.00, 0.00, 0.00, 16:32:20.373
20, -187500.02, -187500.02, -187500.02, -186929.80, -187500.02, -187500.02, -186283.09, -187500.02, 0.00, 0.00, 0.00, 16:32:20.376
21, -187500.02, -187500.02, -187500.02, -186923.86, -187500.02, -187500.02, -186274.64, -187500.02, 0.00, 0.00, 0.00, 16:32:20.378
22, -187500.02, -187500.02, -187500.02, -186930.72, -187500.02, -187500.02, -186275.67, -187500.02, 0.00, 0.00, 0.00, 16:32:20.384
23, -187500.02, -187500.02, -187500.02, -186940.86, -187500.02, -187500.02, -186278.03, -187500.02, 0.00, 0.00, 0.00, 16:32:20.386
24, -187500.02, -187500.02, -187500.02, -186938.98, -187500.02, -187500.02, -186271.47, -187500.02, 0.00, 0.00, 0.00, 16:32:20.391
25, -187500.02, -187500.02, -187500.02, -186931.48, -187500.02, -187500.02, -186261.19, -187500.02, 0.00, 0.00, 0.00, 16:32:20.395
26, -187500.02, -187500.02, -187500.02, -186935.88, -187500.02, -187500.02, -186260.36, -187500.02, 0.05, 0.42, 0.93, 16:32:20.399
27, -187500.02, -187500.02, -187500.02, -186947.48, -187500.02, -187500.02, -186264.33, -187500.02, 0.00, 0.00, 0.00, 16:32:20.404
28, -187500.02, -187500.02, -187500.02, -186950.83, -187500.02, -187500.02, -186263.31, -187500.02, 0.00, 0.00, 0.00, 16:32:20.408
29, -187500.02, -187500.02, -187500.02, -186942.98, -187500.02, -187500.02, -186253.55, -187500.02, 0.00, 0.00, 0.00, 16:32:20.411
30, -187500.02, -187500.02, -187500.02, -186945.38, -187500.02, -187500.02, -186250.91, -187500.02, 0.00, 0.00, 0.00, 16:32:20.416
31, -187500.02, -187500.02, -187500.02, -186955.44, -187500.02, -187500.02, -186253.55, -187500.02, 0.00, 0.00, 0.00, 16:32:20.420
32, -187500.02, -187500.02, -187500.02, -186959.19, -187500.02, -187500.02, -186251.61, -187500.02, 0.00, 0.00, 0.00, 16:32:20.424
34, -187500.02, -187500.02, -187500.02, -186953.03, -187500.02, -187500.02, -186237.41, -187500.02, 0.00, 0.00, 0.00, 16:32:20.430
35, -187500.02, -187500.02, -187500.02, -186963.34, -187500.02, -187500.02, -186240.20, -187500.02, 0.00, 0.00, 0.00, 16:32:20.434
36, -187500.02, -187500.02, -187500.02, -186971.47, -187500.02, -187500.02, -186242.39, -187500.02, 0.06, 0.42, 0.93, 16:32:20.440
37, -187500.02, -187500.02, -187500.02, -186965.20, -187500.02, -187500.02, -186233.86, -187500.02, 0.00, 0.00, 0.00, 16:32:20.444
38, -187500.02, -187500.02, -187500.02, -186963.55, -187500.02, -187500.02, -186228.14, -187500.02, 0.00, 0.00, 0.00, 16:32:20.448
39, -187500.02, -187500.02, -187500.02, -186972.81, -187500.02, -187500.02, -186230.91, -187500.02, 0.00, 0.00, 0.00, 16:32:20.451
40, -187500.02, -187500.02, -187500.02, -186980.06, -187500.02, -187500.02, -186231.39, -187500.02, 0.00, 0.00, 0.00, 16:32:20.455
41, -187500.02, -187500.02, -187500.02, -186974.92, -187500.02, -187500.02, -186222.14, -187500.02, 0.00, 0.00, 0.00, 16:32:20.460
42, -187500.02, -187500.02, -187500.02, -186971.05, -187500.02, -187500.02, -186215.11, -187500.02, 0.00, 0.00, 0.00, 16:32:20.464
43, -187500.02, -187500.02, -187500.02, -186979.41, -187500.02, -187500.02, -186216.69, -187500.02, 0.00, 0.00, 0.00, 16:32:20.467
44, -187500.02, -187500.02, -187500.02, -186990.33, -187500.02, -187500.02, -186221.16, -187500.02, 0.00, 0.00, 0.00, 16:32:20.472
45, -187500.02, -187500.02, -187500.02, -186989.03, -187500.02, -187500.02, -186215.75, -187500.02, 0.00, 0.00, 0.00, 16:32:20.476
46, -187500.02, -187500.02, -187500.02, -186982.48, -187500.02, -187500.02, -186206.05, -187500.02, 0.05, 0.42, 0.92, 16:32:20.478
47, -187500.02, -187500.02, -187500.02, -186988.11, -187500.02, -187500.02, -186205.89, -187500.02, 0.00, 0.00, 0.00, 16:32:20.482
48, -187500.02, -187500.02, -187500.02, -186998.23, -187500.02, -187500.02, -186207.84, -187500.02, 0.00, 0.00, 0.00, 16:32:20.487
50, -187500.02, -187500.02, -187500.02, -186978.42, -187500.02, -187500.02, -186103.84, -187500.02, 0.00, 0.00, 0.00, 16:32:20.497
53, -187500.02, -187500.02, -187500.02, -186954.05, -187500.02, -187500.02, -186801.34, -187500.02, 0.00, 0.00, 0.00, 16:32:20.509
54, -187500.02, -187500.02, -187500.02, -186946.25, -187500.02, -187500.02, -186789.47, -187500.02, 0.00, 0.00, 0.00, 16:32:20.512
55, -187500.02, -187500.02, -187500.02, -186948.55, -187500.02, -187500.02, -186786.08, -187500.02, 0.05, 0.43, 0.92, 16:32:20.515
56, -187500.02, -187500.02, -187500.02, -186958.95, -187500.02, -187500.02, -186787.44, -187500.02, 0.00, 0.00, 0.00, 16:32:20.519
57, -187500.02, -187500.02, -187500.02, -186964.45, -187500.02, -187500.02, -186785.66, -187500.02, 0.00, 0.00, 0.00, 16:32:20.522
58, -187500.02, -187500.02, -187500.02, -186956.33, -187500.02, -187500.02, -186774.66, -187500.02, 0.00, 0.00, 0.00, 16:32:20.527
59, -187500.02, -187500.02, -187500.02, -186956.31, -187500.02, -187500.02, -186770.09, -187500.02, 0.00, 0.00, 0.00, 16:32:20.531
60, -187500.02, -187500.02, -187500.02, -186966.45, -187500.02, -187500.02, -186774.17, -187500.02, 0.00, 0.00, 0.00, 16:32:20.535
61, -187500.02, -187500.02, -187500.02, -186974.19, -187500.02, -187500.02, -186776.27, -187500.02, 0.00, 0.00, 0.00, 16:32:20.539
62, -187500.02, -187500.02, -187500.02, -186968.38, -187500.02, -187500.02, -186765.41, -187500.02, 0.00, 0.00, 0.00, 16:32:20.543
63, -187500.02, -187500.02, -187500.02, -186965.67, -187500.02, -187500.02, -186757.73, -187500.02, 0.00, 0.00, 0.00, 16:32:20.547
64, -187500.02, -187500.02, -187500.02, -186973.47, -187500.02, -187500.02, -186759.34, -187500.02, 0.00, 0.00, 0.00, 16:32:20.550
65, -187500.02, -187500.02, -187500.02, -186982.86, -187500.02, -187500.02, -186761.67, -187500.02, 0.06, 0.43, 0.92, 16:32:20.554
67, -187500.02, -187500.02, -187500.02, -186973.28, -187500.02, -187500.02, -186744.14, -187500.02, 0.00, 0.00, 0.00, 16:32:20.564
68, -187500.02, -187500.02, -187500.02, -186981.83, -187500.02, -187500.02, -186746.61, -187500.02, 0.00, 0.00, 0.00, 16:32:20.568
69, -187500.02, -187500.02, -187500.02, -186992.14, -187500.02, -187500.02, -186750.78, -187500.02, 0.00, 0.00, 0.00, 16:32:20.571
70, -187500.02, -187500.02, -187500.02, -186990.80, -187500.02, -187500.02, -186744.70, -187500.02, 0.00, 0.00, 0.00, 16:32:20.575
71, -187500.02, -187500.02, -187500.02, -186984.00, -187500.02, -187500.02, -186734.11, -187500.02, 0.00, 0.00, 0.00, 16:32:20.579
72, -187500.02, -187500.02, -187500.02, -186988.63, -187500.02, -187500.02, -186732.55, -187500.02, 0.00, 0.00, 0.00, 16:32:20.581
73, -187500.02, -187500.02, -187500.02, -186998.98, -187500.02, -187500.02, -186736.13, -187500.02, 0.00, 0.00, 0.00, 16:32:20.585
75, -187500.02, -187500.02, -187500.02, -186992.72, -187500.02, -187500.02, -186721.59, -187500.02, 0.06, 0.43, 0.93, 16:32:20.595
76, -187500.02, -187500.02, -187500.02, -186997.55, -187500.02, -187500.02, -186720.92, -187500.02, 0.00, 0.00, 0.00, 16:32:20.599
77, -187500.02, -187500.02, -187500.02, -187009.13, -187500.02, -187500.02, -186724.33, -187500.02, 0.00, 0.00, 0.00, 16:32:20.602
78, -187500.02, -187500.02, -187500.02, -187013.39, -187500.02, -187500.02, -186722.27, -187500.02, 0.00, 0.00, 0.00, 16:32:20.607
79, -187500.02, -187500.02, -187500.02, -187004.25, -187500.02, -187500.02, -186711.20, -187500.02, 0.00, 0.00, 0.00, 16:32:20.611
80, -187500.02, -187500.02, -187500.02, -187004.67, -187500.02, -187500.02, -186706.28, -187500.02, 0.00, 0.00, 0.00, 16:32:20.616
81, -187500.02, -187500.02, -187500.02, -187014.67, -187500.02, -187500.02, -186709.09, -187500.02, 0.00, 0.00, 0.00, 16:32:20.619
82, -187500.02, -187500.02, -187500.02, -187021.11, -187500.02, -187500.02, -186709.41, -187500.02, 0.00, 0.00, 0.00, 16:32:20.622
83, -187500.02, -187500.02, -187500.02, -187013.83, -187500.02, -187500.02, -186699.91, -187500.02, 0.00, 0.00, 0.00, 16:32:20.627
84, -187500.02, -187500.02, -187500.02, -187013.06, -187500.02, -187500.02, -186696.05, -187500.02, 0.00, 0.00, 0.00, 16:32:20.631
85, -187500.02, -187500.02, -187500.02, -187022.88, -187500.02, -187500.02, -186699.56, -187500.02, 0.05, 0.42, 0.93, 16:32:20.637
86, -187500.02, -187500.02, -187500.02, -187030.83, -187500.02, -187500.02, -186700.30, -187500.02, 0.00, 0.00, 0.00, 16:32:20.641
87, -187500.02, -187500.02, -187500.02, -187025.17, -187500.02, -187500.02, -186690.25, -187500.02, 0.00, 0.00, 0.00, 16:32:20.644
88, -187500.02, -187500.02, -187500.02, -187020.25, -187500.02, -187500.02, -186682.52, -187500.02, 0.00, 0.00, 0.00, 16:32:20.647
89, -187500.02, -187500.02, -187500.02, -187028.27, -187500.02, -187500.02, -186684.27, -187500.02, 0.00, 0.00, 0.00, 16:32:20.650
90, -187500.02, -187500.02, -187500.02, -187037.63, -187500.02, -187500.02, -186686.66, -187500.02, 0.00, 0.00, 0.00, 16:32:20.654
91, -187500.02, -187500.02, -187500.02, -187034.56, -187500.02, -187500.02, -186678.67, -187500.02, 0.00, 0.00, 0.00, 16:32:20.659
92, -187500.02, -187500.02, -187500.02, -187030.97, -187500.02, -187500.02, -186671.28, -187500.02, 0.00, 0.00, 0.00, 16:32:20.663
95, -187500.02, -187500.02, -187500.02, -187045.72, -187500.02, -187500.02, -186670.19, -187500.02, 0.05, 0.42, 0.93, 16:32:20.674
97, -187500.02, -187500.02, -187500.02, -187042.78, -187500.02, -187500.02, -186658.55, -187500.02, 0.00, 0.00, 0.00, 16:32:20.682
98, -187500.02, -187500.02, -187500.02, -187053.39, -187500.02, -187500.02, -186662.34, -187500.02, 0.00, 0.00, 0.00, 16:32:20.685
100, -187500.02, -187500.02, -187500.02, -187048.59, -187500.02, -187500.02, -186650.14, -187500.02, 0.00, 0.00, 0.00, 16:32:20.696
101, -187500.02, -187500.02, -187500.02, -187051.50, -187500.02, -187500.02, -186648.13, -187500.02, 0.00, 0.00, 0.00, 16:32:20.700
102, -187500.02, -187500.02, -187500.02, -187063.23, -187500.02, -187500.02, -186652.53, -187500.02, 0.00, 0.00, 0.00, 16:32:20.704
103, -187500.02, -187500.02, -187500.02, -187067.13, -187500.02, -187500.02, -186650.53, -187500.02, 0.00, 0.00, 0.00, 16:32:20.707
104, -187500.02, -187500.02, -187500.02, -187057.36, -187500.02, -187500.02, -186637.70, -187500.02, 0.05, 0.42, 0.92, 16:32:20.711
105, -187500.02, -187500.02, -187500.02, -187057.70, -187500.02, -187500.02, -186633.06, -187500.02, 0.00, 0.00, 0.00, 16:32:20.715
106, -187500.02, -187500.02, -187500.02, -187067.39, -187500.02, -187500.02, -186636.64, -187500.02, 0.00, 0.00, 0.00, 16:32:20.720
107, -187500.02, -187500.02, -187500.02, -187074.13, -187500.02, -187500.02, -186636.59, -187500.02, 0.00, 0.00, 0.00, 16:32:20.724
108, -187500.02, -187500.02, -187500.02, -187067.94, -187500.02, -187500.02, -186627.41, -187500.02, 0.00, 0.00, 0.00, 16:32:20.728
109, -187500.02, -187500.02, -187500.02, -187066.75, -187500.02, -187500.02, -186621.75, -187500.02, 0.00, 0.00, 0.00, 16:32:20.731
110, -187500.02, -187500.02, -187500.02, -187076.52, -187500.02, -187500.02, -186624.45, -187500.02, 0.00, 0.00, 0.00, 16:32:20.735
111, -187500.02, -187500.02, -187500.02, -187084.78, -187500.02, -187500.02, -186625.75, -187500.02, 0.00, 0.00, 0.00, 16:32:20.739
112, -187500.02, -187500.02, -187500.02, -187077.70, -187500.02, -187500.02, -186615.16, -187500.02, 0.00, 0.00, 0.00, 16:32:20.743
113, -187500.02, -187500.02, -187500.02, -187073.81, -187500.02, -187500.02, -186607.64, -187500.02, 0.00, 0.00, 0.00, 16:32:20.745
114, -187500.02, -187500.02, -187500.02, -187082.83, -187500.02, -187500.02, -186609.59, -187500.02, 0.05, 0.42, 0.92, 16:32:20.751
115, -187500.02, -187500.02, -187500.02, -187092.67, -187500.02, -187500.02, -186613.30, -187500.02, 0.00, 0.00, 0.00, 16:32:20.754
116, -187500.02, -187500.02, -187500.02, -187089.73, -187500.02, -187500.02, -186607.89, -187500.02, 0.00, 0.00, 0.00, 16:32:20.759
118, -187500.02, -187500.02, -187500.02, -187090.95, -187500.02, -187500.02, -186599.05, -187500.02, 0.00, 0.00, 0.00, 16:32:20.767
119, -187500.02, -187500.02, -187500.02, -187101.42, -187500.02, -187500.02, -186602.50, -187500.02, 0.00, 0.00, 0.00, 16:32:20.770
120, -187500.02, -187500.02, -187500.02, -187099.27, -187500.02, -187500.02, -186595.80, -187500.02, 0.00, 0.00, 0.00, 16:32:20.776
121, -187500.02, -187500.02, -187500.02, -187090.55, -187500.02, -187500.02, -186584.80, -187500.02, 0.00, 0.00, 0.00, 16:32:20.780
122, -187500.02, -187500.02, -187500.02, -187095.52, -187500.02, -187500.02, -186583.66, -187500.02, 0.00, 0.00, 0.00, 16:32:20.784
125, -187500.02, -187500.02, -187500.02, -187102.48, -187500.02, -187500.02, -186575.69, -187500.02, 0.00, 0.00, 0.00, 16:32:20.794
126, -187500.02, -187500.02, -187500.02, -187105.44, -187500.02, -187500.02, -186573.00, -187500.02, 0.00, 0.00, 0.00, 16:32:20.799
127, -187500.02, -187500.02, -187500.02, -187115.97, -187500.02, -187500.02, -186575.50, -187500.02, 0.00, 0.00, 0.00, 16:32:20.803
128, -187500.02, -187500.02, -187500.02, -187119.86, -187500.02, -187500.02, -186573.00, -187500.02, 0.00, 0.00, 0.00, 16:32:20.807
129, -187500.02, -187500.02, -187500.02, -187111.75, -187500.02, -187500.02, -186562.63, -187500.02, 0.00, 0.00, 0.00, 16:32:20.810
130, -187500.02, -187500.02, -187500.02, -187112.58, -187500.02, -187500.02, -186557.91, -187500.02, 0.00, 0.00, 0.00, 16:32:20.815
131, -187500.02, -187500.02, -187500.02, -187122.73, -187500.02, -187500.02, -186561.20, -187500.02, 0.00, 0.00, 0.00, 16:32:20.819
133, -187500.02, -187500.02, -187500.02, -187124.16, -187500.02, -187500.02, -186553.55, -187500.02, 0.00, 0.00, 0.00, 16:32:20.827
134, -187500.02, -187500.02, -187500.02, -187121.63, -187500.02, -187500.02, -186547.09, -187500.02, 0.05, 0.43, 0.92, 16:32:20.831
135, -187500.02, -187500.02, -187500.02, -187130.52, -187500.02, -187500.02, -186548.44, -187500.02, 0.00, 0.00, 0.00, 16:32:20.834
136, -187500.02, -187500.02, -187500.02, -187137.89, -187500.02, -187500.02, -186549.64, -187500.02, 0.00, 0.00, 0.00, 16:32:20.840
137, -187500.02, -187500.02, -187500.02, -187132.52, -187500.02, -187500.02, -186540.41, -187500.02, 0.00, 0.00, 0.00, 16:32:20.843
138, -187500.02, -187500.02, -187500.02, -187128.16, -187500.02, -187500.02, -186532.20, -187500.02, 0.00, 0.00, 0.00, 16:32:20.847
139, -187500.02, -187500.02, -187500.02, -187135.77, -187500.02, -187500.02, -186534.16, -187500.02, 0.00, 0.00, 0.00, 16:32:20.851
140, -187500.02, -187500.02, -187500.02, -187146.48, -187500.02, -187500.02, -186537.58, -187500.02, 0.00, 0.00, 0.00, 16:32:20.854
141, -187500.02, -187500.02, -187500.02, -187144.42, -187500.02, -187500.02, -186530.80, -187500.02, 0.00, 0.00, 0.00, 16:32:20.858
142, -187500.02, -187500.02, -187500.02, -187138.39, -187500.02, -187500.02, -186522.23, -187500.02, 0.00, 0.00, 0.00, 16:32:20.861
143, -187500.02, -187500.02, -187500.02, -187144.13, -187500.02, -187500.02, -186523.38, -187500.02, 0.05, 0.43, 0.92, 16:32:20.867
145, -187500.02, -187500.02, -187500.02, -187153.92, -187500.02, -187500.02, -186520.55, -187500.02, 0.00, 0.00, 0.00, 16:32:20.872
146, -187500.02, -187500.02, -187500.02, -187145.88, -187500.02, -187500.02, -186509.75, -187500.02, 0.00, 0.00, 0.00, 16:32:20.879
147, -187500.02, -187500.02, -187500.02, -187151.47, -187500.02, -187500.02, -186509.41, -187500.02, 0.00, 0.00, 0.00, 16:32:20.883
148, -187500.02, -187500.02, -187500.02, -187164.20, -187500.02, -187500.02, -186514.39, -187500.02, 0.00, 0.00, 0.00, 16:32:20.886
149, -187500.02, -187500.02, -187500.02, -187167.59, -187500.02, -187500.02, -186512.16, -187500.02, 0.00, 0.00, 0.00, 16:32:20.890
150, -187500.02, -187500.02, -187500.02, -187159.52, -187500.02, -187500.02, -186501.91, -187500.02, 0.00, 0.00, 0.00, 16:32:20.894
151, -187500.02, -187500.02, -187500.02, -187161.59, -187500.02, -187500.02, -186498.55, -187500.02, 0.00, 0.00, 0.00, 16:32:20.899
152, -187500.02, -187500.02, -187500.02, -187171.17, -187500.02, -187500.02, -186500.17, -187500.02, 0.00, 0.00, 0.00, 16:32:20.903
153, -187500.02, -187500.02, -187500.02, -187175.56, -187500.02, -187500.02, -186498.97, -187500.02, 0.05, 0.43, 0.92, 16:32:20.907
154, -187500.02, -187500.02, -187500.02, -187167.02, -187500.02, -187500.02, -186488.42, -187500.02, 0.00, 0.00, 0.00, 16:32:20.911
155, -187500.02, -187500.02, -187500.02, -187167.06, -187500.02, -187500.02, -186483.92, -187500.02, 0.00, 0.00, 0.00, 16:32:20.915
156, -187500.02, -187500.02, -187500.02, -187178.33, -187500.02, -187500.02, -186488.23, -187500.02, 0.00, 0.00, 0.00, 16:32:20.919
157, -187500.02, -187500.02, -187500.02, -187186.39, -187500.02, -187500.02, -186489.81, -187500.02, 0.00, 0.00, 0.00, 16:32:20.922
158, -187500.02, -187500.02, -187500.02, -187180.00, -187500.02, -187500.02, -186480.64, -187500.02, 0.00, 0.00, 0.00, 16:32:20.924
159, -187500.02, -187500.02, -187500.02, -187176.34, -187500.02, -187500.02, -186473.36, -187500.02, 0.00, 0.00, 0.00, 16:32:20.931
160, -187500.02, -187500.02, -187500.02, -187184.77, -187500.02, -187500.02, -186474.55, -187500.02, 0.00, 0.00, 0.00, 16:32:20.934
162, -187500.02, -187500.02, -187500.02, -187188.44, -187500.02, -187500.02, -186468.19, -187500.02, 0.00, 0.00, 0.00, 16:32:20.942
163, -187500.02, -187500.02, -187500.02, -187183.94, -187500.02, -187500.02, -186460.09, -187500.02, 0.05, 0.42, 0.92, 16:32:20.948
164, -187500.02, -187500.02, -187500.02, -187192.61, -187500.02, -187500.02, -186463.23, -187500.02, 0.00, 0.00, 0.00, 16:32:20.951
165, -187500.02, -187500.02, -187500.02, -187203.09, -187500.02, -187500.02, -186466.73, -187500.02, 0.00, 0.00, 0.00, 16:32:20.955
166, -187500.02, -187500.02, -187500.02, -187201.23, -187500.02, -187500.02, -186460.80, -187500.02, 0.00, 0.00, 0.00, 16:32:20.960
168, -187500.02, -187500.02, -187500.02, -187198.58, -187500.02, -187500.02, -186449.23, -187500.02, 0.00, 0.00, 0.00, 16:32:20.966
169, -187500.02, -187500.02, -187500.02, -187208.91, -187500.02, -187500.02, -186451.81, -187500.02, 0.00, 0.00, 0.00, 16:32:20.969
170, -187500.02, -187500.02, -187500.02, -187209.22, -187500.02, -187500.02, -186447.50, -187500.02, 0.00, 0.00, 0.00, 16:32:20.974
172, -187500.02, -187500.02, -187500.02, -187207.44, -187500.02, -187500.02, -186438.02, -187500.02, 0.00, 0.00, 0.00, 16:32:20.982
175, -187500.02, -187500.02, -187500.02, -187212.44, -187500.02, -187500.02, -186428.11, -187500.02, 0.00, 0.00, 0.00, 16:32:20.997
176, -187500.02, -187500.02, -187500.02, -187213.05, -187500.02, -187500.02, -186423.48, -187500.02, 0.00, 0.00, 0.00, 16:32:20.998
177, -187500.02, -187500.02, -187500.02, -187223.22, -187500.02, -187500.02, -186426.22, -187500.02, 0.00, 0.00, 0.00, 16:32:21.004
179, -187500.02, -187500.02, -187500.02, -187207.00, -187500.02, -187500.02, -186336.34, -187500.02, 0.00, 0.00, 0.00, 16:32:21.010
180, -187500.02, -187500.02, -187500.02, -187180.23, -187500.02, -187500.02, -186643.91, -187500.02, 0.00, 0.00, 0.00, 16:32:21.014
181, -187500.02, -187500.02, -187500.02, -187178.02, -187500.02, -187500.02, -186982.70, -187500.02, 0.00, 0.00, 0.00, 16:32:21.019
182, -187500.02, -187500.02, -187500.02, -187185.03, -187500.02, -187500.02, -187022.09, -187500.02, 0.00, 0.00, 0.00, 16:32:21.023
183, -187500.02, -187500.02, -187500.02, -187178.52, -187500.02, -187500.02, -187010.69, -187500.02, 0.06, 0.42, 0.92, 16:32:21.026
184, -187500.02, -187500.02, -187500.02, -187174.47, -187500.02, -187500.02, -187001.55, -187500.02, 0.00, 0.00, 0.00, 16:32:21.030
185, -187500.02, -187500.02, -187500.02, -187183.56, -187500.02, -187500.02, -187003.00, -187500.02, 0.00, 0.00, 0.00, 16:32:21.033
186, -187500.02, -187500.02, -187500.02, -187193.58, -187500.02, -187500.02, -187004.67, -187500.02, 0.00, 0.00, 0.00, 16:32:21.040
188, -187500.02, -187500.02, -187500.02, -187185.03, -187500.02, -187500.02, -186989.03, -187500.02, 0.00, 0.00, 0.00, 16:32:21.049
190, -187500.02, -187500.02, -187500.02, -187202.88, -187500.02, -187500.02, -186993.80, -187500.02, 0.00, 0.00, 0.00, 16:32:21.055
192, -187500.02, -187500.02, -187500.02, -187193.22, -187500.02, -187500.02, -186975.27, -187500.02, 0.06, 0.42, 0.91, 16:32:21.061
193, -187500.02, -187500.02, -187500.02, -187199.03, -187500.02, -187500.02, -186974.69, -187500.02, 0.00, 0.00, 0.00, 16:32:21.066
197, -187500.02, -187500.02, -187500.02, -187207.81, -187500.02, -187500.02, -186963.33, -187500.02, 0.00, 0.00, 0.00, 16:32:21.083
198, -187500.02, -187500.02, -187500.02, -187218.11, -187500.02, -187500.02, -186967.31, -187500.02, 0.00, 0.00, 0.00, 16:32:21.086
199, -187500.02, -187500.02, -187500.02, -187221.47, -187500.02, -187500.02, -186964.09, -187500.02, 0.00, 0.00, 0.00, 16:32:21.090
201, -187500.02, -187500.02, -187500.02, -187214.38, -187500.02, -187500.02, -186947.91, -187500.02, 0.00, 0.00, 0.00, 16:32:21.099
202, -187500.02, -187500.02, -187500.02, -187223.86, -187500.02, -187500.02, -186951.45, -187500.02, 0.06, 0.43, 0.92, 16:32:21.102
203, -187500.02, -187500.02, -187500.02, -187229.63, -187500.02, -187500.02, -186951.03, -187500.02, 0.00, 0.00, 0.00, 16:32:21.105
204, -187500.02, -187500.02, -187500.02, -187223.25, -187500.02, -187500.02, -186941.17, -187500.02, 0.00, 0.00, 0.00, 16:32:21.109
205, -187500.02, -187500.02, -187500.02, -187222.55, -187500.02, -187500.02, -186936.14, -187500.02, 0.00, 0.00, 0.00, 16:32:21.115
207, -187500.02, -187500.02, -187500.02, -187240.02, -187500.02, -187500.02, -186939.45, -187500.02, 0.00, 0.00, 0.00, 16:32:21.122
208, -187500.02, -187500.02, -187500.02, -187232.59, -187500.02, -187500.02, -186928.69, -187500.02, 0.00, 0.00, 0.00, 16:32:21.127
209, -187500.02, -187500.02, -187500.02, -187228.58, -187500.02, -187500.02, -186922.02, -187500.02, 0.00, 0.00, 0.00, 16:32:21.129
210, -187500.02, -187500.02, -187500.02, -187237.61, -187500.02, -187500.02, -186923.81, -187500.02, 0.00, 0.00, 0.00, 16:32:21.135
211, -187500.02, -187500.02, -187500.02, -187247.44, -187500.02, -187500.02, -186926.81, -187500.02, 0.00, 0.00, 0.00, 16:32:21.139
212, -187500.02, -187500.02, -187500.02, -187245.41, -187500.02, -187500.02, -186920.19, -187500.02, 0.06, 0.42, 0.93, 16:32:21.142
214, -187500.02, -187500.02, -187500.02, -187247.58, -187500.02, -187500.02, -186912.39, -187500.02, 0.00, 0.00, 0.00, 16:32:21.151
216, -187500.02, -187500.02, -187500.02, -187255.52, -187500.02, -187500.02, -186908.77, -187500.02, 0.00, 0.00, 0.00, 16:32:21.157
217, -187500.02, -187500.02, -187500.02, -187247.78, -187500.02, -187500.02, -186898.78, -187500.02, 0.00, 0.00, 0.00, 16:32:21.160
218, -187500.02, -187500.02, -187500.02, -187252.63, -187500.02, -187500.02, -186898.39, -187500.02, 0.00, 0.00, 0.00, 16:32:21.165
219, -187500.02, -187500.02, -187500.02, -187264.09, -187500.02, -187500.02, -186902.33, -187500.02, 0.00, 0.00, 0.00, 16:32:21.170
221, -187500.02, -187500.02, -187500.02, -187260.11, -187500.02, -187500.02, -186889.45, -187500.02, 0.00, 0.00, 0.00, 16:32:21.179
222, -187500.02, -187500.02, -187500.02, -187262.66, -187500.02, -187500.02, -186887.00, -187500.02, 0.06, 0.42, 0.92, 16:32:21.182
223, -187500.02, -187500.02, -187500.02, -187272.47, -187500.02, -187500.02, -186890.34, -187500.02, 0.00, 0.00, 0.00, 16:32:21.187
225, -187500.02, -187500.02, -187500.02, -187268.00, -187500.02, -187500.02, -186874.69, -187500.02, 0.00, 0.00, 0.00, 16:32:21.196
230, -187500.02, -187500.02, -187500.02, -187277.95, -187500.02, -187500.02, -186860.16, -187500.02, 0.00, 0.00, 0.00, 16:32:21.215
231, -187500.02, -187500.02, -187500.02, -187287.34, -187500.02, -187500.02, -186862.81, -187500.02, 0.00, 0.00, 0.00, 16:32:21.218
232, -187500.02, -187500.02, -187500.02, -187295.05, -187500.02, -187500.02, -186863.64, -187500.02, 0.06, 0.42, 0.93, 16:32:21.221
234, -187500.02, -187500.02, -187500.02, -187285.48, -187500.02, -187500.02, -186845.83, -187500.02, 0.00, 0.00, 0.00, 16:32:21.231
235, -187500.02, -187500.02, -187500.02, -187293.78, -187500.02, -187500.02, -186848.13, -187500.02, 0.00, 0.00, 0.00, 16:32:21.234
239, -187500.02, -187500.02, -187500.02, -187301.98, -187500.02, -187500.02, -186836.14, -187500.02, 0.00, 0.00, 0.00, 16:32:21.249
240, -187500.02, -187500.02, -187500.02, -187311.09, -187500.02, -187500.02, -186838.58, -187500.02, 0.00, 0.00, 0.00, 16:32:21.254
241, -187500.02, -187500.02, -187500.02, -187310.63, -187500.02, -187500.02, -186832.86, -187500.02, 0.06, 0.43, 0.92, 16:32:21.258
242, -187500.02, -187500.02, -187500.02, -187302.98, -187500.02, -187500.02, -186822.13, -187500.02, 0.00, 0.00, 0.00, 16:32:21.263
243, -187500.02, -187500.02, -187500.02, -187307.80, -187500.02, -187500.02, -186821.94, -187500.02, 0.00, 0.00, 0.00, 16:32:21.267
244, -187500.02, -187500.02, -187500.02, -187319.55, -187500.02, -187500.02, -186826.69, -187500.02, 0.00, 0.00, 0.00, 16:32:21.270
245, -187500.02, -187500.02, -187500.02, -187322.67, -187500.02, -187500.02, -186823.72, -187500.02, 0.00, 0.00, 0.00, 16:32:21.275
246, -187500.02, -187500.02, -187500.02, -187314.05, -187500.02, -187500.02, -186812.98, -187500.02, 0.00, 0.00, 0.00, 16:32:21.278
247, -187500.02, -187500.02, -187500.02, -187315.70, -187500.02, -187500.02, -186810.27, -187500.02, 0.00, 0.00, 0.00, 16:32:21.282
248, -187500.02, -187500.02, -187500.02, -187325.52, -187500.02, -187500.02, -186812.55, -187500.02, 0.00, 0.00, 0.00, 16:32:21.286
249, -187500.02, -187500.02, -187500.02, -187330.20, -187500.02, -187500.02, -186811.14, -187500.02, 0.00, 0.00, 0.00, 16:32:21.291
250, -187500.02, -187500.02, -187500.02, -187322.28, -187500.02, -187500.02, -186800.25, -187500.02, 0.00, 0.00, 0.00, 16:32:21.294
251, -187500.02, -187500.02, -187500.02, -187322.91, -187500.02, -187500.02, -186795.22, -187500.02, 0.05, 0.44, 0.93, 16:32:21.298
252, -187500.02, -187500.02, -187500.02, -187334.86, -187500.02, -187500.02, -186800.14, -187500.02, 0.00, 0.00, 0.00, 16:32:21.302
253, -187500.02, -187500.02, -187500.02, -187342.34, -187500.02, -187500.02, -186801.25, -187500.02, 0.00, 0.00, 0.00, 16:32:21.306
255, -187500.02, -187500.02, -187500.02, -187333.08, -187500.02, -187500.02, -186784.33, -187500.02, 0.00, 0.00, 0.00, 16:32:21.314
0, -187500.02, -187500.02, -187500.02, -187341.67, -187500.02, -187500.02, -186785.39, -187500.02, 0.00, 0.00, 0.00, 16:32:21.318
1, -187500.02, -187500.02, -187500.02, -187350.66, -187500.02, -187500.02, -186787.84, -187500.02, 0.00, 0.00, 0.00, 16:32:21.322
2, -187500.02, -187500.02, -187500.02, -187346.28, -187500.02, -187500.02, -186779.66, -187500.02, 0.00, 0.00, 0.00, 16:32:21.326
3, -187500.02, -187500.02, -187500.02, -187341.98, -187500.02, -187500.02, -186771.55, -187500.02, 0.00, 0.00, 0.00, 16:32:21.331
4, -187500.02, -187500.02, -187500.02, -187350.39, -187500.02, -187500.02, -186774.34, -187500.02, 0.00, 0.00, 0.00, 16:32:21.334
5, -187500.02, -187500.02, -187500.02, -187360.72, -187500.02, -187500.02, -186777.70, -187500.02, 0.06, 0.42, 0.91, 16:32:21.337
6, -187500.02, -187500.02, -187500.02, -187358.59, -187500.02, -187500.02, -186770.61, -187500.02, 0.00, 0.00, 0.00, 16:32:21.344
7, -187500.02, -187500.02, -187500.02, -187352.30, -187500.02, -187500.02, -186760.80, -187500.02, 0.00, 0.00, 0.00, 16:32:21.346
8, -187500.02, -187500.02, -187500.02, -187357.95, -187500.02, -187500.02, -186760.52, -187500.02, 0.00, 0.00, 0.00, 16:32:21.351
9, -187500.02, -187500.02, -187500.02, -187368.72, -187500.02, -187500.02, -186762.67, -187500.02, 0.00, 0.00, 0.00, 16:32:21.353
10, -187500.02, -187500.02, -187500.02, -187369.13, -187500.02, -187500.02, -186758.00, -187500.02, 0.00, 0.00, 0.00, 16:32:21.358
11, -187500.02, -187500.02, -187500.02, -187361.61, -187500.02, -187500.02, -186748.30, -187500.02, 0.00, 0.00, 0.00, 16:32:21.363
12, -187500.02, -187500.02, -187500.02, -187366.59, -187500.02, -187500.02, -186747.97, -187500.02, 0.00, 0.00, 0.00, 16:32:21.365
14, -187500.02, -187500.02, -187500.02, -187380.88, -187500.02, -187500.02, -186750.30, -187500.02, 0.00, 0.00, 0.00, 16:32:21.375
15, -187500.02, -187500.02, -187500.02, -187373.14, -187500.02, -187500.02, -186739.56, -187500.02, 0.05, 0.43, 0.93, 16:32:21.377
16, -187500.02, -187500.02, -187500.02, -187373.45, -187500.02, -187500.02, -186735.45, -187500.02, 0.00, 0.00, 0.00, 16:32:21.382
17, -187500.02, -187500.02, -187500.02, -187383.25, -187500.02, -187500.02, -186738.30, -187500.02, 0.00, 0.00, 0.00, 16:32:21.385
18, -187500.02, -187500.02, -187500.02, -187389.91, -187500.02, -187500.02, -186737.53, -187500.02, 0.00, 0.00, 0.00, 16:32:21.389
19, -187500.02, -187500.02, -187500.02, -187382.92, -187500.02, -187500.02, -186727.56, -187500.02, 0.00, 0.00, 0.00, 16:32:21.393
20, -187500.02, -187500.02, -187500.02, -187383.05, -187500.02, -187500.02, -186723.92, -187500.02, 0.00, 0.00, 0.00, 16:32:21.398
21, -187500.02, -187500.02, -187500.02, -187392.80, -187500.02, -187500.02, -186727.14, -187500.02, 0.00, 0.00, 0.00, 16:32:21.403
23, -187500.02, -187500.02, -187500.02, -187394.98, -187500.02, -187500.02, -186719.56, -187500.02, 0.00, 0.00, 0.00, 16:32:21.410
24, -187500.02, -187500.02, -187500.02, -187390.69, -187500.02, -187500.02, -186710.50, -187500.02, 0.06, 0.43, 0.92, 16:32:21.414
25, -187500.02, -187500.02, -187500.02, -187398.27, -187500.02, -187500.02, -186711.58, -187500.02, 0.00, 0.00, 0.00, 16:32:21.417
26, -187500.02, -187500.02, -187500.02, -187407.45, -187500.02, -187500.02, -186714.31, -187500.02, 0.00, 0.00, 0.00, 16:32:21.422
27, -187500.02, -187500.02, -187500.02, -187403.61, -187500.02, -187500.02, -186706.02, -187500.02, 0.00, 0.00, 0.00, 16:32:21.427
30, -187500.02, -187500.02, -187500.02, -187418.86, -187500.02, -187500.02, -186703.89, -187500.02, 0.00, 0.00, 0.00, 16:32:21.438
31, -187500.02, -187500.02, -187500.02, -187416.20, -187500.02, -187500.02, -186697.67, -187500.02, 0.00, 0.00, 0.00, 16:32:21.443
32, -187500.02, -187500.02, -187500.02, -187408.06, -187500.02, -187500.02, -186686.44, -187500.02, 0.00, 0.00, 0.00, 16:32:21.446
33, -187500.02, -187500.02, -187500.02, -187413.45, -187500.02, -187500.02, -186685.81, -187500.02, 0.00, 0.00, 0.00, 16:32:21.448
34, -187500.02, -187500.02, -187500.02, -187424.47, -187500.02, -187500.02, -186689.30, -187500.02, 0.05, 0.42, 0.92, 16:32:21.455
35, -187500.02, -187500.02, -187500.02, -187426.44, -187500.02, -187500.02, -186685.58, -187500.02, 0.00, 0.00, 0.00, 16:32:21.458
38, -187500.02, -187500.02, -187500.02, -187433.78, -187500.02, -187500.02, -186677.84, -187500.02, 0.00, 0.00, 0.00, 16:32:21.470
39, -187500.02, -187500.02, -187500.02, -187437.28, -187500.02, -187500.02, -186675.13, -187500.02, 0.00, 0.00, 0.00, 16:32:21.475
40, -187500.02, -187500.02, -187500.02, -187428.28, -187500.02, -187500.02, -186663.91, -187500.02, 0.00, 0.00, 0.00, 16:32:21.477
41, -187500.02, -187500.02, -187500.02, -187428.31, -187500.02, -187500.02, -186660.58, -187500.02, 0.00, 0.00, 0.00, 16:32:21.481
42, -187500.02, -187500.02, -187500.02, -187438.69, -187500.02, -187500.02, -186663.59, -187500.02, 0.00, 0.00, 0.00, 16:32:21.486
43, -187500.02, -187500.02, -187500.02, -187445.50, -187500.02, -187500.02, -186663.86, -187500.02, 0.00, 0.00, 0.00, 16:32:21.489
45, -187500.02, -187500.02, -187500.02, -187439.02, -187500.02, -187500.02, -186648.80, -187500.02, 0.00, 0.00, 0.00, 16:32:21.496
46, -187500.02, -187500.02, -187500.02, -187449.14, -187500.02, -187500.02, -186651.05, -187500.02, 0.00, 0.00, 0.00, 16:32:21.500
47, -187500.02, -187500.02, -187500.02, -187457.08, -187500.02, -187500.02, -186652.73, -187500.02, 0.00, 0.00, 0.00, 16:32:21.505
48, -187500.02, -187500.02, -187500.02, -187449.77, -187500.02, -187500.02, -186619.56, -187500.02, 0.00, 0.00, 0.00, 16:32:21.510
52, -187500.02, -187500.02, -187500.02, -187407.95, -187500.02, -187500.02, -187228.06, -187500.02, 0.00, 0.00, 0.00, 16:32:21.525
53, -187500.02, -187500.02, -187500.02, -187403.08, -187500.02, -187500.02, -187218.41, -187500.02, 0.00, 0.00, 0.00, 16:32:21.530
54, -187500.02, -187500.02, -187500.02, -187409.69, -187500.02, -187500.02, -187218.47, -187500.02, 0.04, 0.43, 0.91, 16:32:21.534
55, -187500.02, -187500.02, -187500.02, -187420.42, -187500.02, -187500.02, -187220.38, -187500.02, 0.00, 0.00, 0.00, 16:32:21.538
56, -187500.02, -187500.02, -187500.02, -187419.28, -187500.02, -187500.02, -187213.31, -187500.02, 0.00, 0.00, 0.00, 16:32:21.541
58, -187500.02, -187500.02, -187500.02, -187417.09, -187500.02, -187500.02, -187201.59, -187500.02, 0.00, 0.00, 0.00, 16:32:21.549
59, -187500.02, -187500.02, -187500.02, -187427.75, -187500.02, -187500.02, -187205.75, -187500.02, 0.00, 0.00, 0.00, 16:32:21.552
60, -187500.02, -187500.02, -187500.02, -187430.75, -187500.02, -187500.02, -187203.44, -187500.02, 0.00, 0.00, 0.00, 16:32:21.557
61, -187500.02, -187500.02, -187500.02, -187423.95, -187500.02, -187500.02, -187192.44, -187500.02, 0.00, 0.00, 0.00, 16:32:21.563
64, -187500.02, -187500.02, -187500.02, -187440.73, -187500.02, -187500.02, -187189.94, -187500.02, 0.05, 0.43, 0.93, 16:32:21.575
65, -187500.02, -187500.02, -187500.02, -187433.83, -187500.02, -187500.02, -187178.39, -187500.02, 0.00, 0.00, 0.00, 16:32:21.577
66, -187500.02, -187500.02, -187500.02, -187435.42, -187500.02, -187500.02, -187173.86, -187500.02, 0.00, 0.00, 0.00, 16:32:21.582
67, -187500.02, -187500.02, -187500.02, -187445.28, -187500.02, -187500.02, -187177.06, -187500.02, 0.00, 0.00, 0.00, 16:32:21.586
68, -187500.02, -187500.02, -187500.02, -187452.61, -187500.02, -187500.02, -187179.17, -187500.02, 0.00, 0.00, 0.00, 16:32:21.591
72, -187500.02, -187500.02, -187500.02, -187461.64, -187500.02, -187500.02, -187165.61, -187500.02, 0.00, 0.00, 0.00, 16:32:21.606
73, -187500.02, -187500.02, -187500.02, -187456.67, -187500.02, -187500.02, -187156.89, -187500.02, 0.05, 0.44, 0.92, 16:32:21.610
74, -187500.02, -187500.02, -187500.02, -187453.09, -187500.02, -187500.02, -187149.27, -187500.02, 0.00, 0.00, 0.00, 16:32:21.613
75, -187500.02, -187500.02, -187500.02, -187461.03, -187500.02, -187500.02, -187150.69, -187500.02, 0.00, 0.00, 0.00, 16:32:21.617
76, -187500.02, -187500.02, -187500.02, -187471.47, -187500.02, -187500.02, -187154.77, -187500.02, 0.00, 0.00, 0.00, 16:32:21.621
77, -187500.02, -187500.02, -187500.02, -187468.59, -187500.02, -187500.02, -187148.33, -187500.02, 0.00, 0.00, 0.00, 16:32:21.626
78, -187500.02, -187500.02, -187500.02, -187462.78, -187500.02, -187500.02, -187139.33, -187500.02, 0.00, 0.00, 0.00, 16:32:21.629
79, -187500.02, -187500.02, -187500.02, -187469.64, -187500.02, -187500.02, -187139.84, -187500.02, 0.00, 0.00, 0.00, 16:32:21.634
80, -187500.02, -187500.02, -187500.02, -187479.23, -187500.02, -187500.02, -187142.08, -187500.02, 0.00, 0.00, 0.00, 16:32:21.636
81, -187500.02, -187500.02, -187500.02, -187479.41, -187500.02, -187500.02, -187135.84, -187500.02, 0.00, 0.00, 0.00, 16:32:21.641
83, -187500.02, -187500.02, -187500.02, -187477.86, -187500.02, -187500.02, -187126.14, -187500.02, 0.04, 0.43, 0.92, 16:32:21.649
86, -187500.02, -187500.02, -187500.02, -187484.58, -187500.02, -187500.02, -187118.50, -187500.02, 0.00, 0.00, 0.00, 16:32:21.662
88, -187500.02, -187500.02, -187500.02, -187496.28, -187500.02, -187500.02, -187116.84, -187500.02, 0.00, 0.00, 0.00, 16:32:21.668
89, -187500.02, -187500.02, -187500.02, -187500.02, -187500.02, -187500.02, -187115.25, -187500.02, 0.00, 0.00, 0.00, 16:32:21.672
91, -187500.02, -187500.02, -187500.02, -187494.42, -187500.02, -187500.02, -187100.64, -187500.02, 0.00, 0.00, 0.00, 16:32:21.680
92, -187500.02, -187500.02, -187500.02, -187500.02, -187500.02, -187500.02, -187104.81, -187500.02, 0.00, 0.00, 0.00, 16:32:21.684
93, -187500.02, -187500.02, -187500.02, -187500.02, -187500.02, -187500.02, -187105.84, -187500.02, 0.04, 0.43, 0.93, 16:32:21.688
95, -187500.02, -187500.02, -187500.02, -187500.02, -187500.02, -187500.02, -187091.11, -187500.02, 0.00, 0.00, 0.00, 16:32:21.697
98, -187500.02, -187500.02, -187500.02, -187500.02, -187500.02, -187500.02, -187085.81, -187500.02, 0.00, 0.00, 0.00, 16:32:21.709
99, -187500.02, -187500.02, -187500.02, -187500.02, -187500.02, -187500.02, -187078.23, -187500.02, 0.00, 0.00, 0.00, 16:32:21.715
100, -187500.02, -187500.02, -187500.02, -187500.02, -187500.02, -187500.02, -187080.81, -187500.02, 0.00, 0.00, 0.00, 16:32:21.718
101, -187500.02, -187500.02, -187500.02, -187500.02, -187500.02, -187500.02, -187083.09, -187500.02, 0.00, 0.00, 0.00, 16:32:21.722
102, -187500.02, -187500.02, -187500.02, -187500.02, -187500.02, -187500.02, -187076.98, -187500.02, 0.00, 0.00, 0.00, 16:32:21.726
104, -187500.02, -187500.02, -187500.02, -187500.02, -187500.02, -187500.02, -187066.86, -187500.02, 0.00, 0.00, 0.00, 16:32:21.733
105, -187500.02, -187500.02, -187500.02, -187500.02, -187500.02, -187500.02, -187068.98, -187500.02, 0.00, 0.00, 0.00, 16:32:21.737
106, -187500.02, -187500.02, -187500.02, -187500.02, -187500.02, -187500.02, -187064.36, -187500.02, 0.00, 0.00, 0.00, 16:32:21.740
107, -187500.02, -187500.02, -187500.02, -187500.02, -187500.02, -187500.02, -187056.36, -187500.02, 0.00, 0.00, 0.00, 16:32:21.746
108, -187500.02, -187500.02, -187500.02, -187500.02, -187500.02, -187500.02, -187056.64, -187500.02, 0.00, 0.00, 0.00, 16:32:21.750
109, -187500.02, -187500.02, -187500.02, -187500.02, -187500.02, -187500.02, -187058.77, -187500.02, 0.00, 0.00, 0.00, 16:32:21.754
111, -187500.02, -187500.02, -187500.02, -187500.02, -187500.02, -187500.02, -187046.86, -187500.02, 0.00, 0.00, 0.00, 16:32:21.761
113, -187500.02, -187500.02, -187500.02, -187500.02, -187500.02, -187500.02, -187044.80, -187500.02, 0.00, 0.00, 0.00, 16:32:21.769
114, -187500.02, -187500.02, -187500.02, -187500.02, -187500.02, -187500.02, -187043.13, -187500.02, 0.00, 0.00, 0.00, 16:32:21.774
116, -187500.02, -187500.02, -187500.02, -187500.02, -187500.02, -187500.02, -187033.09, -187500.02, 0.00, 0.00, 0.00, 16:32:21.782
119, -187500.02, -187500.02, -187500.02, -187500.02, -187500.02, -187500.02, -187026.66, -187500.02, 0.00, 0.00, 0.00, 16:32:21.793
120, -187500.02, -187500.02, -187500.02, -187500.02, -187500.02, -187500.02, -187020.77, -187500.02, 0.00, 0.00, 0.00, 16:32:21.799
122, -187500.02, -187500.02, -187500.02, -187500.02, -187500.02, -187500.02, -187020.48, -187500.02, 0.06, 0.42, 0.91, 16:32:21.806
123, -187500.02, -187500.02, -187500.02, -187500.02, -187500.02, -187500.02, -187015.23, -187500.02, 0.00, 0.00, 0.00, 16:32:21.809
124, -187500.02, -187500.02, -187500.02, -187500.02, -187500.02, -187500.02, -187010.58, -187500.02, 0.00, 0.00, 0.00, 16:32:21.813
125, -187500.02, -187500.02, -187500.02, -187500.02, -187500.02, -187500.02, -187009.81, -187500.02, 0.00, 0.00, 0.00, 16:32:21.816
126, -187500.02, -187500.02, -187500.02, -187500.02, -187500.02, -187500.02, -187009.39, -187500.02, 0.00, 0.00, 0.00, 16:32:21.820
127, -187500.02, -187500.02, -187500.02, -187500.02, -187500.02, -187500.02, -187004.75, -187500.02, 0.00, 0.00, 0.00, 16:32:21.825
129, -187500.02, -187500.02, -187500.02, -187500.02, -187500.02, -187500.02, -186996.61, -187500.02, 0.00, 0.00, 0.00, 16:32:21.833
130, -187500.02, -187500.02, -187500.02, -187500.02, -187500.02, -187500.02, -186995.88, -187500.02, 0.00, 0.00, 0.00, 16:32:21.837
131, -187500.02, -187500.02, -187500.02, -187500.02, -187500.02, -187500.02, -186993.03, -187500.02, 0.00, 0.00, 0.00, 16:32:21.842
133, -187500.02, -187500.02, -187500.02, -187500.02, -187500.02, -187500.02, -186988.77, -187500.02, 0.00, 0.00, 0.00, 16:32:21.848
134, -187500.02, -187500.02, -187500.02, -187500.02, -187500.02, -187500.02, -186986.02, -187500.02, 0.00, 0.00, 0.00, 16:32:21.852
135, -187500.02, -187500.02, -187500.02, -187500.02, -187500.02, -187500.02, -186982.48, -187500.02, 0.00, 0.00, 0.00, 16:32:21.856
136, -187500.02, -187500.02, -187500.02, -187500.02, -187500.02, -187500.02, -186978.97, -187500.02, 0.00, 0.00, 0.00, 16:32:21.862
137, -187500.02, -187500.02, -187500.02, -187500.02, -187500.02, -187500.02, -186976.67, -187500.02, 0.00, 0.00, 0.00, 16:32:21.866
138, -187500.02, -187500.02, -187500.02, -187500.02, -187500.02, -187500.02, -186973.70, -187500.02, 0.00, 0.00, 0.00, 16:32:21.869
139, -187500.02, -187500.02, -187500.02, -187500.02, -187500.02, -187500.02, -186969.61, -187500.02, 0.00, 0.00, 0.00, 16:32:21.873
140, -187500.02, -187500.02, -187500.02, -187500.02, -187500.02, -187500.02, -186968.84, -187500.02, 0.00, 0.00, 0.00, 16:32:21.877
141, -187500.02, -187500.02, -187500.02, -187500.02, -187500.02, -187500.02, -186968.56, -187500.02, 0.00, 0.00, 0.00, 16:32:21.881
142, -187500.02, -187500.02, -187500.02, -187500.02, -187500.02, -187500.02, -186964.78, -187500.02, 0.05, 0.43, 0.91, 16:32:21.885
143, -187500.02, -187500.02, -187500.02, -187500.02, -187500.02, -187500.02, -186958.77, -187500.02, 0.00, 0.00, 0.00, 16:32:21.890
144, -187500.02, -187500.02, -187500.02, -187500.02, -187500.02, -187500.02, -186957.67, -187500.02, 0.00, 0.00, 0.00, 16:32:21.893
145, -187500.02, -187500.02, -187500.02, -187500.02, -187500.02, -187500.02, -186957.50, -187500.02, 0.00, 0.00, 0.00, 16:32:21.896
146, -187500.02, -187500.02, -187500.02, -187500.02, -187500.02, -187500.02, -186951.89, -187500.02, 0.00, 0.00, 0.00, 16:32:21.900
147, -187500.02, -187500.02, -187500.02, -187500.02, -187500.02, -187500.02, -186944.00, -187500.02, 0.00, 0.00, 0.00, 16:32:21.906
148, -187500.02, -187500.02, -187500.02, -187500.02, -187500.02, -187500.02, -186946.39, -187500.02, 0.00, 0.00, 0.00, 16:32:21.908
149, -187500.02, -187500.02, -187500.02, -187500.02, -187500.02, -187500.02, -186951.23, -187500.02, 0.00, 0.00, 0.00, 16:32:21.912
150, -187500.02, -187500.02, -187500.02, -187500.02, -187500.02, -187500.02, -186945.00, -187500.02, 0.00, 0.00, 0.00, 16:32:21.918
152, -187500.02, -187500.02, -187500.02, -187500.02, -187500.02, -187500.02, -186933.00, -187500.02, 0.05, 0.42, 0.92, 16:32:21.923
153, -187500.02, -187500.02, -187500.02, -187500.02, -187500.02, -187500.02, -186940.06, -187500.02, 0.00, 0.00, 0.00, 16:32:21.927
154, -187500.02, -187500.02, -187500.02, -187500.02, -187500.02, -187500.02, -186934.70, -187500.02, 0.00, 0.00, 0.00, 16:32:21.932
155, -187500.02, -187500.02, -187500.02, -187500.02, -187500.02, -187500.02, -186921.47, -187500.02, 0.00, 0.00, 0.00, 16:32:21.935
156, -187500.02, -187500.02, -187500.02, -187500.02, -187500.02, -187500.02, -186919.27, -187500.02, 0.00, 0.00, 0.00, 16:32:21.941
157, -187500.02, -187500.02, -187500.02, -187500.02, -187500.02, -187500.02, -186931.55, -187500.02, 0.00, 0.00, 0.00, 16:32:21.947
158, -187500.02, -187500.02, -187500.02, -187500.02, -187500.02, -187500.02, -186928.50, -187500.02, 0.00, 0.00, 0.00, 16:32:21.949
159, -187500.02, -187500.02, -187500.02, -187500.02, -187500.02, -187500.02, -186912.52, -187500.02, 0.00, 0.00, 0.00, 16:32:21.953
160, -187500.02, -187500.02, -187500.02, -187500.02, -187500.02, -187500.02, -186904.20, -187500.02, 0.00, 0.00, 0.00, 16:32:21.956
161, -187500.02, -187500.02, -187500.02, -187500.02, -187500.02, -187500.02, -186919.09, -187500.02, 0.06, 0.41, 0.92, 16:32:21.960
162, -187500.02, -187500.02, -187500.02, -187500.02, -187500.02, -187500.02, -186919.39, -187500.02, 0.00, 0.00, 0.00, 16:32:21.966
163, -187500.02, -187500.02, -187500.02, -187500.02, -187500.02, -187500.02, -186902.58, -187500.02, 0.00, 0.00, 0.00, 16:32:21.970
164, -187500.02, -187500.02, -187500.02, -187500.02, -187500.02, -187500.02, -186891.09, -187500.02, 0.00, 0.00, 0.00, 16:32:21.974
168, -187500.02, -187500.02, -187500.02, -187500.02, -187500.02, -187500.02, -186874.77, -187500.02, 0.00, 0.00, 0.00, 16:32:21.988
169, -187500.02, -187500.02, -187500.02, -187500.02, -187500.02, -187500.02, -186888.31, -187500.02, 0.00, 0.00, 0.00, 16:32:21.992
170, -187500.02, -187500.02, -187500.02, -187500.02, -187500.02, -187500.02, -186901.02, -187500.02, 0.00, 0.00, 0.00, 16:32:21.997
171, -187500.02, -187500.02, -187500.02, -187500.02, -187500.02, -187500.02, -186885.03, -187500.02, 0.06, 0.42, 0.92, 16:32:22.002
172, -187500.02, -187500.02, -187500.02, -187500.02, -187500.02, -187500.02, -186833.11, -187500.02, 0.00, 0.00, 0.00, 16:32:22.006
174, -187500.02, -187500.02, -187500.02, -187500.02, -187500.02, -187500.02, -187139.23, -187500.02, 0.00, 0.00, 0.00, 16:32:22.013
175, -187500.02, -187500.02, -187500.02, -187500.02, -187500.02, -187500.02, -187412.16, -187500.02, 0.00, 0.00, 0.00, 16:32:22.019
176, -187500.02, -187500.02, -187500.02, -187500.02, -187500.02, -187500.02, -187405.20, -187500.02, 0.00, 0.00, 0.00, 16:32:22.023
177, -187500.02, -187500.02, -187500.02, -187500.02, -187500.02, -187500.02, -187406.42, -187500.02, 0.00, 0.00, 0.00, 16:32:22.025
178, -187500.02, -187500.02, -187500.02, -187500.02, -187500.02, -187500.02, -187429.08, -187500.02, 0.00, 0.00, 0.00, 16:32:22.028
181, -187500.02, -187500.02, -187500.02, -187500.02, -187500.02, -187500.02, -187390.06, -187500.02, 0.06, 0.42, 0.91, 16:32:22.041
182, -187500.02, -187500.02, -187500.02, -187500.02, -187500.02, -187500.02, -187414.09, -187500.02, 0.00, 0.00, 0.00, 16:32:22.045
183, -187500.02, -187500.02, -187500.02, -187500.02, -187500.02, -187500.02, -187411.02, -187500.02, 0.00, 0.00, 0.00, 16:32:22.050
184, -187500.02, -187500.02, -187500.02, -187500.02, -187500.02, -187500.02, -187384.50, -187500.02, 0.00, 0.00, 0.00, 16:32:22.053
185, -187500.02, -187500.02, -187500.02, -187500.02, -187500.02, -187500.02, -187372.67, -187500.02, 0.00, 0.00, 0.00, 16:32:22.057
186, -187500.02, -187500.02, -187500.02, -187500.02, -187500.02, -187500.02, -187395.66, -187500.02, 0.00, 0.00, 0.00, 16:32:22.061
187, -187500.02, -187500.02, -187500.02, -187500.02, -187500.02, -187500.02, -187400.06, -187500.02, 0.00, 0.00, 0.00, 16:32:22.064
188, -187500.02, -187500.02, -187500.02, -187500.02, -187500.02, -187500.02, -187379.88, -187500.02, 0.00, 0.00, 0.00, 16:32:22.069
189, -187500.02, -187500.02, -187500.02, -187500.02, -187500.02, -187500.02, -187363.33, -187500.02, 0.00, 0.00, 0.00, 16:32:22.073
190, -187500.02, -187500.02, -187500.02, -187500.02, -187500.02, -187500.02, -187382.31, -187500.02, 0.00, 0.00, 0.00, 16:32:22.078
191, -187500.02, -187500.02, -187500.02, -187500.02, -187500.02, -187500.02, -187391.56, -187500.02, 0.06, 0.42, 0.93, 16:32:22.082
192, -187500.02, -187500.02, -187500.02, -187500.02, -187500.02, -187500.02, -187371.34, -187500.02, 0.00, 0.00, 0.00, 16:32:22.084
193, -187500.02, -187500.02, -187500.02, -187500.02, -187500.02, -187500.02, -187351.17, -187500.02, 0.00, 0.00, 0.00, 16:32:22.089
194, -187500.02, -187500.02, -187500.02, -187500.02, -187500.02, -187500.02, -187365.38, -187500.02, 0.00, 0.00, 0.00, 16:32:22.092
195, -187500.02, -187500.02, -187500.02, -187500.02, -187500.02, -187500.02, -187379.55, -187500.02, 0.00, 0.00, 0.00, 16:32:22.095
196, -187500.02, -187500.02, -187500.02, -187500.02, -187500.02, -187500.02, -187365.09, -187500.02, 0.00, 0.00, 0.00, 16:32:22.101
197, -187500.02, -187500.02, -187500.02, -187500.02, -187500.02, -187500.02, -187341.97, -187500.02, 0.00, 0.00, 0.00, 16:32:22.106
198, -187500.02, -187500.02, -187500.02, -187500.02, -187500.02, -187500.02, -187349.00, -187500.02, 0.00, 0.00, 0.00, 16:32:22.108
202, -187500.02, -187500.02, -187500.02, -187500.02, -187500.02, -187500.02, -187330.13, -187500.02, 0.00, 0.00, 0.00, 16:32:22.126
204, -187500.02, -187500.02, -187500.02, -187500.02, -187500.02, -187500.02, -187346.92, -187500.02, 0.00, 0.00, 0.00, 16:32:22.133
205, -187500.02, -187500.02, -187500.02, -187500.02, -187500.02, -187500.02, -187323.61, -187500.02, 0.00, 0.00, 0.00, 16:32:22.136
206, -187500.02, -187500.02, -187500.02, -187500.02, -187500.02, -187500.02, -187317.42, -187500.02, 0.00, 0.00, 0.00, 16:32:22.141
207, -187500.02, -187500.02, -187500.02, -187500.02, -187500.02, -187500.02, -187339.34, -187500.02, 0.00, 0.00, 0.00, 16:32:22.145
209, -187500.02, -187500.02, -187500.02, -187500.02, -187500.02, -187500.02, -187313.22, -187500.02, 0.00, 0.00, 0.00, 16:32:22.152
210, -187500.02, -187500.02, -187500.02, -187500.02, -187500.02, -187500.02, -187300.27, -187500.02, 0.05, 0.43, 0.93, 16:32:22.156
211, -187500.02, -187500.02, -187500.02, -187500.02, -187500.02, -187500.02, -187322.94, -187500.02, 0.00, 0.00, 0.00, 16:32:22.159
212, -187500.02, -187500.02, -187500.02, -187500.02, -187500.02, -187500.02, -187329.38, -187500.02, 0.00, 0.00, 0.00, 16:32:22.165
214, -187500.02, -187500.02, -187500.02, -187500.02, -187500.02, -187500.02, -187288.44, -187500.02, 0.00, 0.00, 0.00, 16:32:22.172
215, -187500.02, -187500.02, -187500.02, -187500.02, -187500.02, -187500.02, -187308.39, -187500.02, 0.00, 0.00, 0.00, 16:32:22.176
216, -187500.02, -187500.02, -187500.02, -187500.02, -187500.02, -187500.02, -187319.39, -187500.02, 0.00, 0.00, 0.00, 16:32:22.179
217, -187500.02, -187500.02, -187500.02, -187500.02, -187500.02, -187500.02, -187298.41, -187500.02, 0.00, 0.00, 0.00, 16:32:22.183
218, -187500.02, -187500.02, -187500.02, -187500.02, -187500.02, -187500.02, -187274.00, -187500.02, 0.00, 0.00, 0.00, 16:32:22.187
219, -187500.02, -187500.02, -187500.02, -187500.02, -187500.02, -187500.02, -187290.17, -187500.02, 0.00, 0.00, 0.00, 16:32:22.190
220, -187500.02, -187500.02, -187500.02, -187500.02, -187500.02, -187500.02, -187310.97, -187500.02, 0.06, 0.43, 0.93, 16:32:22.197
222, -187500.02, -187500.02, -187500.02, -187500.02, -187500.02, -187500.02, -187266.50, -187500.02, 0.00, 0.00, 0.00, 16:32:22.205
223, -187500.02, -187500.02, -187500.02, -187500.02, -187500.02, -187500.02, -187274.53, -187500.02, 0.00, 0.00, 0.00, 16:32:22.209
224, -187500.02, -187500.02, -187500.02, -187500.02, -187500.02, -187500.02, -187297.73, -187500.02, 0.00, 0.00, 0.00, 16:32:22.212
225, -187500.02, -187500.02, -187500.02, -187500.02, -187500.02, -187500.02, -187284.92, -187500.02, 0.00, 0.00, 0.00, 16:32:22.218
226, -187500.02, -187500.02, -187500.02, -187500.02, -187500.02, -187500.02, -187256.50, -187500.02, 0.00, 0.00, 0.00, 16:32:22.220
227, -187500.02, -187500.02, -187500.02, -187500.02, -187500.02, -187500.02, -187257.19, -187500.02, 0.00, 0.00, 0.00, 16:32:22.225
229, -187500.02, -187500.02, -187500.02, -187500.02, -187500.02, -187500.02, -187280.44, -187500.02, 0.00, 0.00, 0.00, 16:32:22.232
231, -187500.02, -187500.02, -187500.02, -187500.02, -187500.02, -187500.02, -187244.64, -187500.02, 0.00, 0.00, 0.00, 16:32:22.239
232, -187500.02, -187500.02, -187500.02, -187500.02, -187500.02, -187500.02, -187271.41, -187500.02, 0.00, 0.00, 0.00, 16:32:22.243
233, -187500.02, -187500.02, -187500.02, -187500.02, -187500.02, -187500.02, -187271.33, -187500.02, 0.00, 0.00, 0.00, 16:32:22.248
234, -187500.02, -187500.02, -187500.02, -187500.02, -187500.02, -187500.02, -187245.05, -187500.02, 0.00, 0.00, 0.00, 16:32:22.253
235, -187500.02, -187500.02, -187500.02, -187500.02, -187500.02, -187500.02, -187229.66, -187500.02, 0.00, 0.00, 0.00, 16:32:22.257
237, -187500.02, -187500.02, -187500.02, -187500.02, -187500.02, -187500.02, -187264.78, -187500.02, 0.00, 0.00, 0.00, 16:32:22.264
238, -187500.02, -187500.02, -187500.02, -187500.02, -187500.02, -187500.02, -187240.27, -187500.02, 0.00, 0.00, 0.00, 16:32:22.266
239, -187500.02, -187500.02, -187500.02, -187500.02, -187500.02, -187500.02, -187218.41, -187500.02, 0.00, 0.00, 0.00, 16:32:22.271
240, -187500.02, -187500.02, -187500.02, -187500.02, -187500.02, -187500.02, -187239.47, -187500.02, 0.05, 0.42, 0.91, 16:32:22.276
241, -187500.02, -187500.02, -187500.02, -187500.02, -187500.02, -187500.02, -187253.63, -187500.02, 0.00, 0.00, 0.00, 16:32:22.281
242, -187500.02, -187500.02, -187500.02, -187500.02, -187500.02, -187500.02, -187233.52, -187500.02, 0.00, 0.00, 0.00, 16:32:22.284
244, -187500.02, -187500.02, -187500.02, -187500.02, -187500.02, -187500.02, -187223.70, -187500.02, 0.00, 0.00, 0.00, 16:32:22.293
245, -187500.02, -187500.02, -187500.02, -187500.02, -187500.02, -187500.02, -187244.67, -187500.02, 0.00, 0.00, 0.00, 16:32:22.296
246, -187500.02, -187500.02, -187500.02, -187500.02, -187500.02, -187500.02, -187229.38, -187500.02, 0.00, 0.00, 0.00, 16:32:22.301
248, -187500.02, -187500.02, -187500.02, -187500.02, -187500.02, -187500.02, -187206.78, -187500.02, 0.00, 0.00, 0.00, 16:32:22.307
252, -187500.02, -187500.02, -187500.02, -187500.02, -187500.02, -187500.02, -187196.50, -187500.02, 0.00, 0.00, 0.00, 16:32:22.324
255, -187500.02, -187500.02, -187500.02, -187500.02, -187500.02, -187500.02, -187193.06, -187500.02, 0.00, 0.00, 0.00, 16:32:22.335
0, -187500.02, -187500.02, -187500.02, -187500.02, -187500.02, -187500.02, -187183.88, -187500.02, 0.00, 0.00, 0.00, 16:32:22.340
1, -187500.02, -187500.02, -187500.02, -187500.02, -187500.02, -187500.02, -187202.92, -187500.02, 0.00, 0.00, 0.00, 16:32:22.344
3, -187500.02, -187500.02, -187500.02, -187500.02, -187500.02, -187500.02, -187186.31, -187500.02, 0.06, 0.43, 0.92, 16:32:22.352
4, -187500.02, -187500.02, -187500.02, -187500.02, -187500.02, -187500.02, -187175.48, -187500.02, 0.00, 0.00, 0.00, 16:32:22.356
5, -187500.02, -187500.02, -187500.02, -187500.02, -187500.02, -187500.02, -187190.05, -187500.02, 0.00, 0.00, 0.00, 16:32:22.360
6, -187500.02, -187500.02, -187500.02, -187500.02, -187500.02, -187500.02, -187194.98, -187500.02, 0.00, 0.00, 0.00, 16:32:22.364
7, -187500.02, -187500.02, -187500.02, -187500.02, -187500.02, -187500.02, -187180.59, -187500.02, 0.00, 0.00, 0.00, 16:32:22.369
8, -187500.02, -187500.02, -187500.02, -187500.02, -187500.02, -187500.02, -187165.88, -187500.02, 0.00, 0.00, 0.00, 16:32:22.372
9, -187500.02, -187500.02, -187500.02, -187500.02, -187500.02, -187500.02, -187174.89, -187500.02, 0.00, 0.00, 0.00, 16:32:22.376
10, -187500.02, -187500.02, -187500.02, -187500.02, -187500.02, -187500.02, -187182.73, -187500.02, 0.00, 0.00, 0.00, 16:32:22.381
13, -187500.02, -187500.02, -187500.02, -187500.02, -187500.02, -187500.02, -187164.22, -187500.02, 0.06, 0.43, 0.93, 16:32:22.391
14, -187500.02, -187500.02, -187500.02, -187500.02, -187500.02, -187500.02, -187171.28, -187500.02, 0.00, 0.00, 0.00, 16:32:22.396
15, -187500.02, -187500.02, -187500.02, -187500.02, -187500.02, -187500.02, -187164.38, -187500.02, 0.00, 0.00, 0.00, 16:32:22.402
17, -187500.02, -187500.02, -187500.02, -187500.02, -187500.02, -187500.02, -187155.13, -187500.02, 0.00, 0.00, 0.00, 16:32:22.406
18, -187500.02, -187500.02, -187500.02, -187500.02, -187500.02, -187500.02, -187154.53, -187500.02, 0.00, 0.00, 0.00, 16:32:22.413
19, -187500.02, -187500.02, -187500.02, -187500.02, -187500.02, -187500.02, -187154.75, -187500.02, 0.00, 0.00, 0.00, 16:32:22.417
20, -187500.02, -187500.02, -187500.02, -187500.02, -187500.02, -187500.02, -187165.55, -187500.02, 0.00, 0.00, 0.00, 16:32:22.419
21, -187500.02, -187500.02, -187500.02, -187500.02, -187500.02, -187500.02, -187167.67, -187500.02, 0.00, 0.00, 0.00, 16:32:22.424
22, -187500.02, -187500.02, -187500.02, -187500.02, -187500.02, -187500.02, -187154.48, -187500.02, 0.00, 0.00, 0.00, 16:32:22.428
23, -187500.02, -187500.02, -187500.02, -187500.02, -187500.02, -187500.02, -187218.52, -187500.02, 0.04, 0.39, 0.91, 16:32:22.430
24, -187500.02, -187500.02, -187500.02, -187500.02, -181993.70, -187500.02, -187500.02, -187500.02, 0.00, 0.00, 0.00, 16:32:22.435
25, -187500.02, -187500.02, -187500.02, -187500.02, -156649.89, -187500.02, -187500.02, -187500.02, 0.00, 0.00, 0.00, 16:32:22.440
26, -187500.02, -187500.02, -187500.02, -187500.02, -114799.41, -187500.02, -187500.02, -187500.02, 0.00, 0.00, 0.00, 16:32:22.444
27, -187500.02, -187500.02, -187500.02, -187500.02, -130060.70, -187500.02, -187500.02, -187500.02, 0.00, 0.00, 0.00, 16:32:22.447
28, -187500.02, -187500.02, -187500.02, -187500.02, -139752.63, -186021.88, -187500.02, -187500.02, 0.00, 0.00, 0.00, 16:32:22.451
29, -187500.02, -187500.02, -187500.02, -187500.02, -136487.33, -179959.56, -187500.02, -187500.02, 0.00, 0.00, 0.00, 16:32:22.454
30, -187500.02, -187500.02, -187500.02, -187500.02, -119939.79, -158648.23, -187500.02, -187500.02, 0.00, 0.00, 0.00, 16:32:22.458
31, -187500.02, -187500.02, -187500.02, -187500.02, -102164.43, -140535.42, -187500.02, -187500.02, 0.00, 0.00, 0.00, 16:32:22.461
32, -187500.02, -187500.02, -187500.02, -187500.02, -94011.57, -131655.70, -187500.02, -187500.02, 0.00, 0.00, 0.00, 16:32:22.466
33, -187500.02, -187500.02, -187500.02, -187500.02, -92400.55, -124164.14, -187500.02, -187500.02, 0.05, 0.41, 0.82, 16:32:22.470
34, -187500.02, -187500.02, -187500.02, -187500.02, -89246.63, -118551.95, -187500.02, -187500.02, 0.00, 0.00, 0.00, 16:32:22.476
35, -187500.02, -187500.02, -187500.02, -164745.19, -88138.83, -130305.41, -187500.02, -187500.02, 0.00, 0.00, 0.00, 16:32:22.479
36, -187500.02, -187500.02, -187500.02, -130956.92, -86246.35, -140958.17, -187500.02, -187500.02, 0.00, 0.00, 0.00, 16:32:22.484
37, -187500.02, -187500.02, -187500.02, -119303.93, -81947.69, -143636.70, -187500.02, -187500.02, 0.00, 0.00, 0.00, 16:32:22.489
39, -187500.02, -187500.02, -187500.02, -112024.75, -84806.70, -144762.03, -187500.02, -187500.02, 0.00, 0.00, 0.00, 16:32:22.495
40, -187500.02, -187500.02, -187500.02, -113022.95, -90508.05, -149386.47, -187500.02, -187500.02, 0.00, 0.00, 0.00, 16:32:22.500
41, -187500.02, -187500.02, -187500.02, -126031.23, -93963.04, -152961.72, -187500.02, -187492.78, 0.00, 0.00, 0.00, 16:32:22.503
42, -187500.02, -187500.02, -184413.19, -135866.14, -100817.70, -150909.97, -187500.02, -178691.48, 0.04, 0.40, 0.88, 16:32:22.508
43, -187500.02, -187500.02, -140607.36, -145181.44, -107950.96, -149377.73, -187500.02, -171668.64, 0.00, 0.00, 0.00, 16:32:22.512
44, -187500.02, -187500.02, -116587.57, -155097.39, -108805.52, -146065.31, -187500.02, -171023.61, 0.00, 0.00, 0.00, 16:32:22.517
48, -187500.02, -187500.02, -96060.64, -152517.61, -105710.29, -139299.23, -187500.02, -152031.95, 0.00, 0.00, 0.00, 16:32:22.533
51, -187500.02, -187500.02, -101473.02, -74437.09, -108419.52, -145870.77, -187500.02, -93068.23, 0.00, 0.00, 0.00, 16:32:22.545
52, -187500.02, -187500.02, -104594.13, -54623.95, -105386.93, -143454.88, -187500.02, -84552.16, 0.08, 0.50, 0.72, 16:32:22.549
53, -187500.02, -187500.02, -110326.46, -40824.32, -106171.88, -144103.02, -187500.02, -71596.26, 0.00, 0.00, 0.00, 16:32:22.552
54, -187500.02, -187500.02, -114363.14, -20849.19, -108141.05, -143870.33, -187500.02, -58123.25, 0.00, 0.00, 0.00, 16:32:22.556
55, -187500.02, -187500.02, -117641.41, 10102.97, -105015.73, -140309.50, -187500.02, -50632.15, 0.00, 0.00, 0.00, 16:32:22.559
56, -187500.02, -187500.02, -120199.38, 5969.03, -97928.02, -134913.78, -187500.02, -46805.20, 0.00, 0.00, 0.00, 16:32:22.562
58, -187500.02, -175367.78, -132020.06, -24896.20, -93108.06, -129737.09, -187500.02, -43063.14, 0.00, 0.00, 0.00, 16:32:22.572
59, -187500.02, -87058.95, -138487.61, -42501.30, -97326.58, -132231.70, -187500.02, -47407.51, 0.00, 0.00, 0.00, 16:32:22.575
60, -187500.02, -60119.24, -133505.44, -54260.91, -94081.17, -127045.88, -187500.02, -44272.52, 0.00, 0.00, 0.00, 16:32:22.579
61, -187500.02, -54689.22, -128233.63, -61475.59, -92060.26, -122768.43, -187500.02, -42980.93, 0.00, 0.00, 0.00, 16:32:22.584
62, -187500.02, -35836.37, -112147.17, -53190.64, -81191.97, -109679.05, -187500.02, -34168.71, 0.13, 0.41, 0.89, 16:32:22.587
63, -187500.02, -10206.45, -81464.71, -30944.25, -61065.43, -88449.54, -187500.02, -15847.63, 0.00, 0.00, 0.00, 16:32:22.590
64, -181901.11, 13282.46, -50040.61, -8132.95, -42008.11, -69179.74, -175732.00, 2327.80, 0.00, 0.00, 0.00, 16:32:22.594
65, -171973.63, 29689.06, -31631.05, 9175.41, -31507.42, -56714.02, -162690.83, 14095.97, 0.00, 0.00, 0.00, 16:32:22.598
66, -164774.48, 38662.04, -22201.90, 21424.59, -26334.96, -49631.91, -154935.84, 20532.15, 0.00, 0.00, 0.00, 16:32:22.604
67, -158850.20, 49467.00, -10988.09, 33705.31, -19488.35, -42289.41, -147146.94, 25933.52, 0.00, 0.00, 0.00, 16:32:22.610
68, -153450.95, 60499.20, 3235.44, 45940.88, -11786.03, -34113.75, -139254.52, 34031.71, 0.00, 0.00, 0.00, 16:32:22.613
72, -123038.73, 105423.32, 61370.51, 78737.28, 34909.31, 6087.25, -99549.16, 81071.77, 0.08, 0.44, 0.93, 16:32:22.626
73, -110561.27, 125628.04, 81693.21, 86322.08, 51330.55, 23085.95, -81838.72, 99206.63, 0.00, 0.00, 0.00, 16:32:22.632
74, -99243.80, 139668.17, 96641.32, 90198.78, 63811.64, 35676.31, -68162.13, 112230.32, 0.00, 0.00, 0.00, 16:32:22.636
75, -90717.48, 149080.66, 106874.46, 93553.05, 73138.41, 44686.63, -58025.62, 120900.76, 0.00, 0.00, 0.00, 16:32:22.640
76, -84337.95, 157107.59, 115685.45, 97905.80, 81398.52, 52474.36, -49014.36, 127270.38, 0.00, 0.00, 0.00, 16:32:22.643
77, -77881.79, 163652.84, 122606.87, 101560.58, 88173.78, 58792.89, -41607.39, 132377.16, 0.00, 0.00, 0.00, 16:32:22.646
81, -58399.38, 182165.58, 140467.14, 111774.01, 104271.71, 76850.80, -22709.88, 130578.20, 0.00, 0.00, 0.00, 16:32:22.664
82, -55283.55, 184973.94, 141572.69, 110899.95, 105005.20, 77678.68, -21589.95, 129568.38, 0.04, 0.39, 0.79, 16:32:22.667
83, -53006.98, 187500.00, 141737.64, 108652.85, 105022.98, 77149.63, -21450.70, 126380.47, 0.00, 0.00, 0.00, 16:32:22.673
84, -51805.24, 187500.00, 143022.84, 106951.95, 105776.14, 76815.50, -20870.14, 124706.30, 0.00, 0.00, 0.00, 16:32:22.676
86, -48556.59, 187500.00, 145512.02, 103025.69, 106011.08, 75241.65, -20426.12, 127507.69, 0.00, 0.00, 0.00, 16:32:22.684
87, -46870.85, 187500.00, 145971.95, 101443.01, 105749.14, 74359.24, -20361.12, 129173.95, 0.00, 0.00, 0.00, 16:32:22.688
88, -46211.20, 187500.00, 145006.88, 100175.22, 105888.41, 74022.52, -19986.57, 130643.23, 0.00, 0.00, 0.00, 16:32:22.691
89, -44932.97, 187500.00, 143227.66, 100057.13, 106716.39, 74487.66, -18936.73, 132012.84, 0.00, 0.00, 0.00, 16:32:22.696
90, -42447.84, 187500.00, 140431.83, 100816.91, 107467.38, 75099.55, -17915.57, 132658.63, 0.00, 0.00, 0.00, 16:32:22.700
91, -40166.38, 187500.00, 137719.75, 101776.67, 107952.57, 75679.23, -17103.20, 133471.56, 0.01, 0.37, 0.94, 16:32:22.703
92, -38304.45, 185188.28, 135599.31, 103532.78, 108664.99, 76745.45, -15979.84, 134349.38, 0.00, 0.00, 0.00, 16:32:22.709
93, -35732.10, 172978.41, 133359.44, 104434.08, 109090.01, 77540.41, -15168.03, 135209.97, 0.00, 0.00, 0.00, 16:32:22.713
95, -29016.38, 167516.17, 129845.17, 103478.23, 109014.88, 78229.09, -13555.82, 139622.20, 0.00, 0.00, 0.00, 16:32:22.720
96, -26553.94, 167521.22, 128300.82, 103050.50, 109197.92, 78558.09, -12520.73, 141518.14, 0.00, 0.00, 0.00, 16:32:22.724
97, -24654.15, 167329.84, 127843.15, 103778.20, 110523.80, 79701.00, -10594.15, 147162.41, 0.00, 0.00, 0.00, 16:32:22.728
98, -23240.49, 166937.66, 127267.54, 104735.64, 111985.90, 81052.97, -8605.51, 154927.16, 0.00, 0.00, 0.00, 16:32:22.731
99, -22201.54, 165428.00, 126425.27, 105284.36, 112843.60, 81971.53, -7515.89, 147226.63, 0.00, 0.00, 0.00, 16:32:22.734
100, -20775.81, 162903.11, 125839.42, 105482.84, 113589.04, 82245.59, -6997.55, 135764.69, 0.00, 0.00, 0.00, 16:32:22.752
102, -21531.12, 164404.88, 126585.91, 107707.78, 115605.16, 83546.33, -4462.28, 119138.13, 0.00, 0.00, 0.00, 16:32:22.752
103, -21669.66, 165264.19, 126561.23, 108246.99, 115599.38, 84135.16, -3492.39, 114505.32, 0.00, 0.00, 0.00, 16:32:22.752
105, -24278.31, 167540.38, 126688.70, 108649.28, 115444.81, 86256.43, -1026.15, 111197.31, 0.00, 0.00, 0.00, 16:32:22.760
106, -26039.27, 168078.27, 126619.88, 108514.54, 115217.27, 87302.02, 15.13, 109361.72, 0.00, 0.00, 0.00, 16:32:22.765
107, -27030.81, 167540.92, 126985.46, 108369.32, 115344.97, 88813.09, 1266.90, 108292.05, 0.00, 0.00, 0.00, 16:32:22.768
108, -27871.48, 168513.55, 128062.86, 108605.40, 116100.70, 92184.05, 3189.86, 107372.10, 0.00, 0.00, 0.00, 16:32:22.772
109, -29750.97, 170526.69, 129064.91, 109390.64, 117194.46, 96650.80, 5360.42, 105404.25, 0.00, 0.00, 0.00, 16:32:22.776
110, -31546.47, 170362.52, 129478.42, 110083.57, 117998.27, 100167.08, 7264.50, 103518.99, 0.00, 0.00, 0.00, 16:32:22.781
112, -33191.22, 158767.72, 129162.26, 110464.06, 118665.09, 103470.45, 9457.94, 101703.43, 0.00, 0.00, 0.00, 16:32:22.787
113, -33465.05, 159757.52, 130267.98, 111474.83, 120266.89, 105569.32, 11943.34, 101338.56, 0.00, 0.00, 0.00, 16:32:22.791
114, -32676.08, 167684.55, 131472.58, 112430.23, 121999.26, 107808.77, 14403.33, 102031.59, 0.00, 0.00, 0.00, 16:32:22.795
115, -28848.30, 174678.11, 133360.14, 113241.55, 123755.63, 109959.20, 16580.43, 105769.21, 0.00, 0.00, 0.00, 16:32:22.800
116, -26431.96, 179529.16, 135659.17, 114399.78, 125735.13, 112395.99, 18972.00, 108095.29, 0.00, 0.00, 0.00, 16:32:22.805
117, -26035.24, 182212.27, 138069.22, 115606.93, 127361.51, 114571.30, 20977.85, 108400.77, 0.00, 0.00, 0.00, 16:32:22.807
118, -26595.51, 184020.81, 141029.78, 116801.25, 128561.40, 116241.05, 22445.29, 107745.10, 0.00, 0.00, 0.00, 16:32:22.811
119, -25305.10, 184181.81, 143438.66, 117365.56, 129116.05, 116598.45, 23026.56, 108939.34, 0.00, 0.00, 0.00, 16:32:22.815
120, -23663.01, 183650.00, 145527.94, 117561.30, 129530.43, 116322.45, 23406.92, 110486.86, 0.00, 0.00, 0.00, 16:32:22.821
122, -24619.37, 182574.97, 151359.48, 117616.55, 130638.30, 117710.41, 24253.21, 109335.92, 0.00, 0.00, 0.00, 16:32:22.826
123, -25257.67, 182876.33, 153092.44, 117610.20, 131142.75, 118925.65, 24686.34, 108600.44, 0.00, 0.00, 0.00, 16:32:22.829
124, -25623.44, 182099.45, 153378.63, 117485.64, 131472.39, 119910.45, 25003.67, 108141.52, 0.00, 0.00, 0.00, 16:32:22.833
125, -26298.59, 181509.02, 152797.56, 117439.99, 131763.64, 120662.85, 25435.55, 107371.98, 0.00, 0.00, 0.00, 16:32:22.839
126, -27812.07, 180129.06, 150910.06, 116639.55, 131263.55, 120594.16, 25042.47, 105759.71, 0.00, 0.00, 0.00, 16:32:22.844
128, -29251.21, 176120.09, 147263.55, 114975.88, 129721.77, 119688.05, 23614.82, 104129.69, 0.00, 0.00, 0.00, 16:32:22.851
130, -32968.09, 172029.61, 145357.33, 114323.34, 128545.73, 119660.57, 24186.51, 100217.75, 0.10, 0.24, 0.93, 16:32:22.860
133, -35909.37, 172328.17, 150032.41, 113727.26, 127111.37, 116879.91, 24482.36, 96984.28, 0.00, 0.00, 0.00, 16:32:22.872
135, -37917.03, 178411.81, 155317.86, 113213.10, 129037.94, 115143.71, 25626.59, 94776.45, 0.00, 0.00, 0.00, 16:32:22.879
136, -37709.31, 183517.22, 156850.41, 113218.65, 130364.82, 110798.02, 28046.99, 94890.93, 0.00, 0.00, 0.00, 16:32:22.884
137, -37085.25, 187500.00, 159220.30, 117195.65, 131894.06, 108207.49, 29154.45, 95439.13, 0.00, 0.00, 0.00, 16:32:22.888
138, -37563.69, 180548.22, 165704.23, 122761.61, 135534.78, 107966.14, 28574.56, 94882.34, 0.00, 0.00, 0.00, 16:32:22.893
140, -38384.65, 146925.44, 180144.64, 124281.53, 146260.73, 107208.82, 27504.51, 93874.62, -0.03, 0.31, 0.87, 16:32:22.900
141, -37784.64, 138763.73, 177215.52, 123913.80, 152709.42, 109318.02, 27985.01, 94383.34, 0.00, 0.00, 0.00, 16:32:22.903
143, -37683.09, 141476.41, 174837.55, 122901.13, 163714.52, 112163.84, 27832.75, 94281.63, 0.00, 0.00, 0.00, 16:32:22.912
147, -38422.45, 187500.00, 177239.88, 110208.70, 164895.94, 111190.05, 26670.77, 93218.87, 0.00, 0.00, 0.00, 16:32:22.927
148, -38525.49, 187500.00, 180977.23, 106052.54, 157270.53, 107462.58, 26472.44, 93043.47, 0.00, 0.00, 0.00, 16:32:22.932
149, -38690.40, 187500.00, 179202.28, 105561.56, 155456.09, 111962.97, 26221.90, 92813.41, 0.00, 0.00, 0.00, 16:32:22.935
150, -38876.61, 187500.00, 179513.64, 109150.20, 152342.95, 118035.73, 25947.60, 92559.76, -0.03, 0.35, 0.92, 16:32:22.939
151, -39055.43, 187500.00, 180630.88, 109490.71, 153233.52, 127153.95, 25675.13, 92301.93, 0.00, 0.00, 0.00, 16:32:22.944
152, -39203.64, 187500.00, 178781.06, 107536.67, 154030.50, 132793.91, 25435.48, 92079.84, 0.00, 0.00, 0.00, 16:32:22.946
153, -39295.64, 187500.00, 172381.16, 102726.11, 154938.28, 133066.44, 25256.76, 91926.75, 0.00, 0.00, 0.00, 16:32:22.951
154, -39182.25, 170295.56, 148790.86, 82781.63, 139543.67, 132988.27, 25285.34, 91979.64, 0.00, 0.00, 0.00, 16:32:22.955
155, -38807.77, 135831.45, 107963.80, 42782.29, 103572.68, 133311.64, 25552.96, 92264.22, 0.00, 0.00, 0.00, 16:32:22.960
156, -38831.59, 135581.03, 98060.84, 34574.93, 95650.11, 133242.52, 25407.32, 92135.99, 0.00, 0.00, 0.00, 16:32:22.962
157, -39117.07, 152373.38, 110637.63, 44059.82, 111814.44, 132923.88, 25008.36, 91760.70, 0.00, 0.00, 0.00, 16:32:22.967
158, -39331.58, 165494.83, 114088.42, 48232.74, 119472.48, 132676.53, 24687.10, 91464.59, 0.00, 0.00, 0.00, 16:32:22.970
160, -39673.61, 176694.09, 128079.65, 61441.25, 123877.52, 132274.42, 24102.18, 90912.43, -0.01, 0.32, 0.95, 16:32:22.978
161, -39740.21, 173079.83, 125571.63, 58239.68, 117937.16, 132176.39, 23927.25, 90760.15, 0.00, 0.00, 0.00, 16:32:22.984
162, -39825.91, 174015.67, 120821.19, 55430.96, 111098.05, 132059.73, 23739.65, 90596.89, 0.00, 0.00, 0.00, 16:32:22.988
163, -40063.82, 186838.73, 128559.36, 63813.67, 118199.62, 131800.41, 23387.66, 90261.73, 0.00, 0.00, 0.00, 16:32:22.992
164, -40316.33, 187500.00, 135182.55, 73839.25, 128075.96, 131541.38, 23025.51, 89911.84, 0.00, 0.00, 0.00, 16:32:22.995
165, -40499.86, 187500.00, 136635.45, 76306.38, 130283.13, 131356.34, 22758.03, 89663.46, 0.00, 0.00, 0.00, 16:32:22.998
168, -7826.82, 187500.00, 162589.44, 113641.70, 129567.80, 130608.39, 21742.17, 88706.00, 0.00, 0.00, 0.00, 16:32:23.010
169, 54145.54, 187500.00, 167738.55, 117582.04, 130099.24, 131161.47, 22218.06, 89201.00, 0.00, 0.00, 0.00, 16:32:23.014
170, 110811.41, 187500.00, 177149.33, 121825.67, 133816.48, 134848.86, 25901.47, 92906.90, -0.07, 0.31, 0.98, 16:32:23.019
171, 143634.19, 187500.00, 187500.00, 125905.95, 138482.11, 139466.52, 30527.86, 97552.30, 0.00, 0.00, 0.00, 16:32:23.023
172, 165137.91, 187500.00, 187500.00, 128322.92, 141977.36, 142929.97, 33955.74, 100993.07, 0.00, 0.00, 0.00, 16:32:23.027
173, 159582.42, 187500.00, 187500.00, 118736.59, 133132.94, 134259.41, 25031.36, 92090.30, 0.00, 0.00, 0.00, 16:32:23.031
175, 77574.32, 120564.26, 111163.27, 25739.84, 45717.54, 48356.84, -62649.28, 4491.11, 0.00, 0.00, 0.00, 16:32:23.038
176, 87258.10, 104784.39, 110048.95, 12444.00, 32032.24, 34924.36, -76436.86, -9270.90, 0.00, 0.00, 0.00, 16:32:23.043
177, 98349.82, 110712.12, 112784.51, 21494.69, 27772.38, 30756.51, -80775.05, -13590.55, 0.00, 0.00, 0.00, 16:32:23.047
178, 94726.87, 110220.38, 109796.21, 26402.91, 26260.37, 29296.97, -82341.37, -15126.56, 0.00, 0.00, 0.00, 16:32:23.051
179, 61293.38, 52222.46, 63420.48, -6097.15, -5796.68, -2198.67, -114513.41, -47261.89, -0.02, 0.24, 1.04, 16:32:23.055
180, 47731.66, 48688.91, 43310.55, -26013.27, -25995.68, -22034.60, -134820.27, -67551.69, 0.00, 0.00, 0.00, 16:32:23.059
181, 50772.28, 64383.30, 49899.22, -27608.36, -27580.76, -23564.91, -136477.83, -69193.76, 0.00, 0.00, 0.00, 16:32:23.063
182, 46444.71, 37624.29, 41348.63, -40329.39, -40471.16, -36211.61, -149444.83, -82136.91, 0.00, 0.00, 0.00, 16:32:23.066
183, 40808.20, 37601.09, 44515.13, -48096.13, -48312.47, -43893.82, -157345.41, -90017.00, 0.00, 0.00, 0.00, 16:32:23.072
184, 20026.74, 24537.28, 15297.40, -65278.22, -65746.11, -61012.23, -174881.16, -107530.53, 0.00, 0.00, 0.00, 16:32:23.075
185, 14258.54, 28219.43, 2726.18, -75496.26, -76113.81, -71181.30, -184917.63, -117975.66, 0.00, 0.00, 0.00, 16:32:23.079
186, 5545.91, 12712.24, -21226.27, -89927.14, -90742.49, -85537.15, -187500.02, -132673.14, 0.00, 0.00, 0.00, 16:32:23.083
187, 7047.46, 6651.74, -36283.74, -100871.27, -101815.59, -96395.23, -187500.02, -143804.45, 0.00, 0.00, 0.00, 16:32:23.086
188, 9678.15, 2470.72, -46242.90, -108443.69, -109483.00, -103905.91, -187500.02, -151539.97, 0.00, 0.00, 0.00, 16:32:23.090
189, 3351.38, -7313.85, -60134.39, -124676.59, -125966.60, -120087.89, -187500.02, -168093.47, -0.02, 0.14, 1.04, 16:32:23.096
190, -22552.11, -49021.33, -79628.96, -143759.20, -145318.39, -139087.81, -187500.02, -187418.20, 0.00, 0.00, 0.00, 16:32:23.099
191, -24173.43, -55020.11, -81383.23, -145396.70, -146939.11, -140652.59, -187500.02, -187500.02, 0.00, 0.00, 0.00, 16:32:23.101
192, 3949.22, -26382.32, -67664.65, -131865.36, -133146.08, -127061.10, -187500.02, -175177.36, 0.00, 0.00, 0.00, 16:32:23.105
193, 9984.57, -28045.13, -62714.32, -126932.18, -128115.21, -122086.81, -187500.02, -170217.78, 0.00, 0.00, 0.00, 16:32:23.109
194, -3837.06, -59958.93, -72127.16, -136079.52, -137383.39, -131173.63, -187500.02, -179555.67, 0.00, 0.00, 0.00, 16:32:23.114
195, -28205.78, -72263.88, -80971.90, -144674.56, -146085.41, -139702.75, -187500.02, -187500.02, 0.00, 0.00, 0.00, 16:32:23.117
197, -32172.76, -54411.88, 19470.36, -45963.86, -45642.89, -40872.33, -149901.72, -87797.18, 0.00, 0.00, 0.00, 16:32:23.128
198, 1310.37, -1516.77, 89563.46, 22869.05, 24379.49, 28009.44, -81465.42, -17682.38, 0.00, 0.00, 0.00, 16:32:23.130
199, 21023.85, 8090.15, 127019.53, 59691.36, 61879.04, 64905.64, -43941.85, 19859.19, -0.05, 0.17, 0.99, 16:32:23.135
201, 43887.16, 21199.24, 162350.64, 94476.22, 97350.16, 99833.48, -8516.64, 55312.70, 0.00, 0.00, 0.00, 16:32:23.143
202, 43085.55, 24798.46, 165895.45, 98010.07, 100986.83, 103435.78, -4934.48, 58911.91, 0.00, 0.00, 0.00, 16:32:23.145
203, 36574.83, 23346.04, 164146.13, 96356.45, 99362.42, 101862.26, -6612.70, 57254.66, 0.00, 0.00, 0.00, 16:32:23.150
204, 32585.02, 21498.00, 162016.92, 94332.65, 97362.72, 99920.79, -8667.22, 55220.09, 0.00, 0.00, 0.00, 16:32:23.154
205, 35887.02, 22255.54, 162546.34, 94912.39, 97995.16, 100571.56, -8098.57, 55805.33, 0.00, 0.00, 0.00, 16:32:23.158
206, 39244.77, 24969.94, 165083.94, 97462.50, 100627.20, 103190.13, -5526.42, 58392.46, 0.00, 0.00, 0.00, 16:32:23.163
207, 35594.86, 24729.97, 164627.66, 97079.95, 100291.91, 102886.77, -5917.36, 58019.16, 0.00, 0.00, 0.00, 16:32:23.165
209, 26547.57, 21527.81, 160949.41, 93600.25, 96856.05, 99560.74, -9473.90, 54501.06, -0.02, 0.17, 0.97, 16:32:23.177
210, 21983.25, 17050.54, 156167.31, 88971.92, 92182.63, 94993.48, -14226.15, 49769.87, 0.00, 0.00, 0.00, 16:32:23.179
211, 17668.45, 12805.51, 151638.72, 84599.31, 87782.14, 90690.86, -18692.34, 45323.05, 0.00, 0.00, 0.00, 16:32:23.184
212, 17069.33, 11095.50, 149709.44, 82776.69, 85983.52, 88946.87, -20546.39, 43486.79, 0.00, 0.00, 0.00, 16:32:23.188
213, 20156.42, 12098.57, 150543.31, 83660.59, 86925.77, 89903.14, -19661.62, 44388.02, 0.00, 0.00, 0.00, 16:32:23.191
214, 24905.50, 17053.64, 155405.17, 88494.11, 91873.35, 94800.88, -14772.36, 49292.64, 0.00, 0.00, 0.00, 16:32:23.195
215, 28731.85, 17928.13, 156115.28, 89260.26, 92698.16, 95640.52, -14004.13, 50078.99, 0.00, 0.00, 0.00, 16:32:23.198
216, 27844.53, 15174.02, 153129.14, 86402.25, 89844.47, 92862.29, -16914.37, 47187.91, 0.00, 0.00, 0.00, 16:32:23.202
217, 26292.78, 16114.96, 153907.58, 87233.02, 90732.79, 93765.66, -16079.31, 48040.07, 0.00, 0.00, 0.00, 16:32:23.207
218, 25879.99, 16325.13, 153927.16, 87317.73, 90846.02, 93908.86, -16032.26, 48103.77, 0.00, 0.00, 0.00, 16:32:23.212
219, 24970.50, 16066.05, 153479.75, 86946.79, 90508.52, 93605.82, -16431.57, 47723.61, 0.02, 0.24, 1.01, 16:32:23.215
220, 23223.30, 14805.44, 152025.36, 85589.07, 89179.32, 92325.66, -17816.66, 46358.01, 0.00, 0.00, 0.00, 16:32:23.217
221, 22016.89, 13434.60, 150458.77, 84119.31, 87731.04, 90928.95, -19322.03, 44870.97, 0.00, 0.00, 0.00, 16:32:23.222
222, 20102.44, 12392.14, 149212.63, 82960.59, 86581.55, 89830.70, -20537.59, 43670.32, 0.00, 0.00, 0.00, 16:32:23.226
223, 18726.27, 10153.23, 146751.42, 80614.05, 84229.91, 87548.05, -22955.78, 41270.55, 0.00, 0.00, 0.00, 16:32:23.230
224, 15820.63, 6305.29, 142672.00, 76682.51, 80280.67, 83690.27, -26967.24, 37280.20, 0.00, 0.00, 0.00, 16:32:23.234
225, 13525.11, -4674.89, 139662.13, 73805.50, 77401.34, 80885.84, -29904.02, 34362.32, 0.00, 0.00, 0.00, 16:32:23.237
226, 13087.30, -32374.62, 138332.22, 72579.45, 76181.98, 79716.24, -31188.82, 33094.73, 0.00, 0.00, 0.00, 16:32:23.242
227, 12560.88, -37146.72, 138627.14, 72937.18, 76573.59, 80131.80, -30858.01, 33442.79, 0.00, 0.00, 0.00, 16:32:23.246
228, 12456.13, -37241.20, 139080.58, 73454.60, 77142.04, 80719.21, -30340.48, 33978.85, 0.03, 0.26, 1.00, 16:32:23.251
230, 11561.15, -40329.27, 137576.25, 72120.49, 75862.02, 79515.86, -31734.16, 32620.43, 0.00, 0.00, 0.00, 16:32:23.259
232, -53680.37, -106567.08, 78514.73, 14332.81, 17184.67, 21871.00, -90672.28, -26249.66, 0.00, 0.00, 0.00, 16:32:23.267
235, -84677.91, -132263.36, 40726.96, -22502.10, -20201.30, -14807.90, -128310.12, -63828.42, 0.00, 0.00, 0.00, 16:32:23.277
237, -86282.65, -134246.78, 38197.43, -24822.84, -22495.06, -17011.35, -130711.74, -66196.08, 0.00, 0.00, 0.00, 16:32:23.286
238, -89772.52, -138120.77, 35361.75, -27526.42, -25218.60, -19663.57, -133494.94, -68963.89, 0.01, 0.26, 0.98, 16:32:23.290
239, -93423.45, -142107.16, 32327.42, -30428.63, -28159.80, -22527.12, -136506.66, -71960.26, 0.00, 0.00, 0.00, 16:32:23.295
241, -97980.59, -147395.22, 28816.43, -33717.43, -31445.01, -25706.16, -139900.95, -75323.09, 0.00, 0.00, 0.00, 16:32:23.302
242, -100207.00, -150051.61, 27003.43, -35418.82, -33147.61, -27352.97, -141657.34, -77064.52, 0.00, 0.00, 0.00, 16:32:23.305
243, -102129.25, -152486.45, 25243.63, -37073.65, -34820.66, -28968.53, -143394.61, -78787.04, 0.00, 0.00, 0.00, 16:32:23.309
244, -103608.85, -154612.69, 24513.92, -37715.86, -35454.83, -29563.80, -144083.97, -79462.84, 0.00, 0.00, 0.00, 16:32:23.315
246, -104979.41, -156179.70, 24777.78, -37303.45, -34974.55, -29037.60, -143693.86, -79042.34, 0.00, 0.00, 0.00, 16:32:23.323
248, -106284.82, -156935.17, 23660.95, -38261.96, -35916.46, -29906.57, -144754.19, -80076.06, 0.06, 0.25, 0.96, 16:32:23.330
249, -107456.12, -157735.92, 23109.78, -38727.68, -36355.58, -30312.27, -145242.66, -80550.32, 0.00, 0.00, 0.00, 16:32:23.334
250, -108273.66, -157786.56, 22814.34, -38943.20, -36543.43, -30468.42, -145476.17, -80771.40, 0.00, 0.00, 0.00, 16:32:23.339
251, -107699.69, -155918.97, 23527.94, -38175.37, -35750.32, -29657.10, -144736.03, -80019.20, 0.00, 0.00, 0.00, 16:32:23.342
252, -104539.46, -150541.81, 27246.62, -34460.38, -31958.88, -25899.68, -140991.31, -76261.31, 0.00, 0.00, 0.00, 16:32:23.347
253, -101962.58, -145423.50, 30605.75, -31091.92, -28501.24, -22473.92, -137577.08, -72830.88, 0.00, 0.00, 0.00, 16:32:23.350
1, -62634.95, -83823.46, 66675.38, 4570.02, 7851.25, 13387.26, -101347.57, -36550.38, 0.00, 0.00, 0.00, 16:32:23.367
2, -47155.63, -73662.01, 81482.14, 19171.54, 22736.69, 28050.95, -86475.86, -21662.39, 0.02, 0.23, 0.97, 16:32:23.371
3, -35100.69, -68249.75, 92170.74, 29727.53, 33500.55, 38662.73, -75745.79, -10912.37, 0.00, 0.00, 0.00, 16:32:23.375
4, -25763.49, -65751.30, 98267.20, 35774.70, 39669.67, 44758.79, -69626.35, -4771.07, 0.00, 0.00, 0.00, 16:32:23.379
5, -18827.05, -62429.07, 100772.37, 38298.86, 42274.70, 47347.03, -67068.55, -2190.45, 0.00, 0.00, 0.00, 16:32:23.383
6, -12975.12, -56367.54, 96395.43, 34071.99, 38023.85, 43190.36, -71377.14, -6472.69, 0.00, 0.00, 0.00, 16:32:23.386
7, -8904.58, -51150.31, 81296.02, 19321.12, 23057.14, 28497.98, -86429.84, -21498.04, 0.00, 0.00, 0.00, 16:32:23.390
8, -6799.83, -46812.38, 69502.08, 7812.29, 11367.67, 17034.31, -98205.05, -33250.27, 0.00, 0.00, 0.00, 16:32:23.395
9, -5337.57, -42977.13, 61627.31, 156.86, 3608.80, 9431.59, -106035.51, -41057.79, 0.00, 0.00, 0.00, 16:32:23.400
11, -2926.94, -36930.89, 50044.19, -11053.97, -7725.48, -1662.88, -117496.97, -52477.91, 0.04, 0.22, 0.99, 16:32:23.406
12, -1774.88, -33332.62, 44759.68, -16165.88, -12913.85, -6731.54, -122757.36, -57722.68, 0.00, 0.00, 0.00, 16:32:23.410
13, -938.37, -30499.78, 40730.62, -20044.93, -16836.45, -10558.00, -126743.98, -61693.52, 0.00, 0.00, 0.00, 16:32:23.414
16, 1127.65, -25659.78, 30383.69, -29972.55, -26842.52, -20316.64, -136937.11, -71839.04, 0.00, 0.00, 0.00, 16:32:23.427
17, 1864.96, -24670.49, 27506.19, -32724.34, -29621.02, -23019.52, -139778.50, -74668.21, 0.00, 0.00, 0.00, 16:32:23.430
18, 2762.54, -23828.19, 25388.85, -34726.61, -31620.01, -24959.83, -141831.22, -76706.73, 0.00, 0.00, 0.00, 16:32:23.435
20, 5171.05, -23269.98, 21088.63, -38801.89, -35710.96, -28926.98, -146038.50, -80885.51, 0.00, 0.00, 0.00, 16:32:23.442
22, 7449.28, -25202.26, 18103.44, -41588.46, -38498.00, -31609.43, -148936.69, -83759.27, 0.00, 0.00, 0.00, 16:32:23.449
25, 9471.39, -23837.26, 11291.41, -48063.00, -45018.00, -37932.96, -155626.41, -90410.77, 0.00, 0.00, 0.00, 16:32:23.462
28, 10986.84, -30100.65, 4640.69, -54372.61, -51346.78, -44072.25, -162112.89, -96858.82, 0.00, 0.00, 0.00, 16:32:23.474
29, 11520.67, -32723.82, 1856.69, -57038.21, -54049.45, -46695.79, -164875.27, -99608.94, 0.00, 0.00, 0.00, 16:32:23.477
30, 11917.01, -34505.28, -54.63, -58843.47, -55858.93, -48447.88, -166737.39, -101458.23, 0.00, 0.00, 0.00, 16:32:23.484
31, 12617.25, -35925.31, -1589.01, -60275.75, -57279.92, -49821.05, -168205.56, -102913.42, 0.01, 0.21, 0.95, 16:32:23.487
32, 14051.51, -37929.90, -3731.62, -62305.20, -59319.88, -51799.54, -170299.19, -104993.92, 0.00, 0.00, 0.00, 16:32:23.490
33, 16163.69, -40481.22, -6450.02, -64903.70, -61953.89, -54358.14, -172994.31, -107677.42, 0.00, 0.00, 0.00, 16:32:23.495
35, 20867.48, -43822.65, -10055.85, -68299.09, -65349.43, -57643.71, -176493.39, -111144.76, 0.00, 0.00, 0.00, 16:32:23.502
36, 23744.91, -45866.71, -12240.19, -70370.64, -67426.80, -59659.48, -178622.22, -113259.10, 0.00, 0.00, 0.00, 16:32:23.506
37, 27101.67, -48640.14, -15189.60, -73195.16, -70288.32, -62442.37, -181547.92, -116168.13, 0.00, 0.00, 0.00, 16:32:23.510
38, 30606.27, -50301.86, -16996.87, -74897.70, -72001.41, -64096.55, -183321.61, -117921.07, 0.00, 0.00, 0.00, 16:32:23.515
39, 28160.25, -52011.82, -18839.59, -76633.18, -73733.24, -65771.48, -185175.13, -119686.14, 0.00, 0.00, 0.00, 16:32:23.519
40, 20107.99, -55568.38, -22566.30, -80217.32, -77341.99, -69295.13, -187500.02, -123347.29, 0.00, 0.00, 0.00, 16:32:23.521
41, 13122.84, -61816.96, -29059.14, -86517.77, -83733.72, -75550.21, -187500.02, -129810.37, 0.04, 0.18, 0.96, 16:32:23.526
42, 8065.69, -66740.20, -34200.54, -91491.21, -88773.84, -80477.37, -187500.02, -134916.22, 0.00, 0.00, 0.00, 16:32:23.530
43, 4492.75, -70205.06, -37839.45, -94987.83, -92296.66, -83916.34, -187500.02, -138492.77, 0.00, 0.00, 0.00, 16:32:23.533
44, -3939.72, -78441.81, -46346.83, -103259.27, -100676.66, -92131.41, -187500.02, -146929.25, 0.00, 0.00, 0.00, 16:32:23.538
45, -14353.84, -88627.13, -56860.51, -113499.78, -111078.58, -102329.37, -187500.02, -157400.33, 0.00, 0.00, 0.00, 16:32:23.543
47, -18716.03, -92837.19, -61391.23, -117793.00, -115402.23, -106522.98, -187500.02, -161830.92, 0.00, 0.00, 0.00, 16:32:23.550
48, -18814.87, -92897.00, -61559.81, -117883.81, -115458.18, -106553.87, -187500.02, -161929.13, 0.00, 0.00, 0.00, 16:32:23.555
49, -18901.51, -92947.94, -61729.73, -117976.66, -115532.27, -106597.03, -187500.02, -162056.05, 0.00, 0.00, 0.00, 16:32:23.558
50, -18985.10, -92996.09, -61901.34, -118070.94, -115616.72, -106646.90, -187500.02, -162196.08, 0.00, 0.00, 0.00, 16:32:23.561
51, -19091.45, -93069.66, -62088.02, -118180.69, -115699.22, -106701.59, -187500.02, -162325.09, 0.01, 0.22, 0.86, 16:32:23.567
52, -19205.67, -93152.66, -62282.82, -118299.09, -115783.06, -106759.48, -187500.02, -162451.95, 0.00, 0.00, 0.00, 16:32:23.570
53, -19311.21, -93224.48, -62472.27, -118411.07, -115873.92, -106818.70, -187500.02, -162592.38, 0.00, 0.00, 0.00, 16:32:23.574
54, -19413.18, -93289.27, -62659.54, -118518.13, -115972.72, -106879.98, -187500.02, -162743.41, 0.00, 0.00, 0.00, 16:32:23.578
55, -19523.55, -93366.67, -62853.64, -118635.92, -116066.55, -106944.78, -187500.02, -162884.06, 0.00, 0.00, 0.00, 16:32:23.583
56, -19634.76, -93450.47, -63048.05, -118758.93, -116156.40, -107011.92, -187500.02, -163019.52, 0.00, 0.00, 0.00, 16:32:23.587
58, -19862.97, -93606.66, -63437.96, -118997.46, -116354.51, -107147.24, -187500.02, -163317.89, 0.00, 0.00, 0.00, 16:32:23.595
59, -19977.68, -93687.58, -63637.02, -119118.01, -116455.31, -107217.05, -187500.02, -163468.27, 0.00, 0.00, 0.00, 16:32:23.599
60, -20088.74, -93773.52, -63839.51, -119244.92, -116553.66, -107292.44, -187500.02, -163615.02, 0.10, 0.27, 0.90, 16:32:23.602
61, -20201.15, -93858.30, -64041.05, -119370.65, -116653.99, -107367.63, -187500.02, -163763.16, 0.00, 0.00, 0.00, 16:32:23.607
62, -20319.90, -93941.12, -64241.23, -119489.13, -116759.48, -107436.36, -187500.02, -163917.16, 0.00, 0.00, 0.00, 16:32:23.610
63, -20435.46, -94025.63, -64443.41, -119614.38, -116862.72, -107507.06, -187500.02, -164070.05, 0.00, 0.00, 0.00, 16:32:23.615
64, -20546.35, -94111.26, -64645.76, -119745.02, -116963.16, -107582.81, -187500.02, -164218.86, 0.00, 0.00, 0.00, 16:32:23.618
65, -20657.73, -94198.88, -64848.60, -119876.67, -117065.16, -107659.38, -187500.02, -164368.70, 0.00, 0.00, 0.00, 16:32:23.622
66, -20775.10, -94282.38, -65052.52, -119998.66, -117170.52, -107730.66, -187500.02, -164524.50, 0.00, 0.00, 0.00, 16:32:23.627
67, -20893.27, -94368.52, -65256.16, -120121.65, -117277.05, -107805.01, -187500.02, -164679.36, 0.00, 0.00, 0.00, 16:32:23.630
68, -21009.01, -94459.45, -65462.60, -120254.75, -117383.16, -107886.62, -187500.02, -164831.53, 0.00, 0.00, 0.00, 16:32:23.633
69, -21122.13, -94548.59, -65668.80, -120390.23, -117488.14, -107968.33, -187500.02, -164985.73, 0.00, 0.00, 0.00, 16:32:23.638
70, -21239.68, -94635.14, -65875.71, -120517.70, -117596.50, -108043.34, -187500.02, -165144.55, 0.04, 0.21, 0.92, 16:32:23.642
71, -21358.48, -94722.35, -66081.19, -120641.81, -117704.82, -108116.26, -187500.02, -165302.20, 0.00, 0.00, 0.00, 16:32:23.646
72, -21468.85, -94810.22, -66285.82, -120773.69, -117810.09, -108195.65, -187500.02, -165456.75, 0.00, 0.00, 0.00, 16:32:23.649
73, -21577.95, -94899.24, -66492.55, -120908.41, -117915.64, -108279.09, -187500.02, -165611.27, 0.00, 0.00, 0.00, 16:32:23.652
74, -21694.65, -94989.01, -66701.47, -121038.24, -118024.09, -108357.79, -187500.02, -165768.05, 0.00, 0.00, 0.00, 16:32:23.655
75, -21816.84, -95077.81, -66909.61, -121165.16, -118134.24, -108434.43, -187500.02, -165925.73, 0.00, 0.00, 0.00, 16:32:23.661
76, -21930.79, -95168.07, -67117.52, -121300.09, -118243.85, -108518.81, -187500.02, -166083.53, 0.00, 0.00, 0.00, 16:32:23.666
77, -22039.42, -95257.21, -67324.39, -121438.07, -118353.63, -108604.91, -187500.02, -166241.67, 0.00, 0.00, 0.00, 16:32:23.670
78, -22154.96, -95346.26, -67533.49, -121572.32, -118462.45, -108685.04, -187500.02, -166399.72, 0.00, 0.00, 0.00, 16:32:23.674
79, -22278.52, -95437.27, -67743.93, -121699.90, -118571.91, -108756.81, -187500.02, -166557.17, 0.00, 0.00, 0.00, 16:32:23.677
80, -22391.04, -95527.13, -67951.73, -121833.30, -118680.18, -108835.42, -187500.02, -166714.48, 0.04, 0.25, 1.04, 16:32:23.680
81, -22497.72, -95614.66, -68158.16, -121970.02, -118788.34, -108922.91, -187500.02, -166875.77, 0.00, 0.00, 0.00, 16:32:23.685
82, -22610.78, -95704.94, -68366.74, -122103.80, -118897.77, -109006.15, -187500.02, -167035.50, 0.00, 0.00, 0.00, 16:32:23.690
83, -22737.15, -95797.85, -68579.24, -122232.08, -119009.18, -109079.80, -187500.02, -167191.48, 0.00, 0.00, 0.00, 16:32:23.695
84, -22855.46, -95889.02, -68790.51, -122364.55, -119121.30, -109161.96, -187500.02, -167352.06, 0.00, 0.00, 0.00, 16:32:23.698
85, -22961.99, -95976.22, -68997.13, -122502.22, -119230.66, -109251.16, -187500.02, -167515.45, 0.00, 0.00, 0.00, 16:32:23.702
86, -23069.99, -96063.34, -69204.10, -122639.41, -119339.54, -109337.69, -187500.02, -167677.75, 0.00, 0.00, 0.00, 16:32:23.708
87, -23194.22, -96156.11, -69416.45, -122769.55, -119450.45, -109411.54, -187500.02, -167831.06, 0.00, 0.00, 0.00, 16:32:23.710
88, -23313.03, -96247.10, -69626.84, -122901.84, -119560.05, -109489.39, -187500.02, -167986.00, 0.00, 0.00, 0.00, 16:32:23.714
90, -23524.23, -96422.13, -70041.98, -123174.85, -119781.01, -109664.43, -187500.02, -168319.11, 0.26, 0.34, 0.87, 16:32:23.722
92, -23774.12, -96613.13, -70473.98, -123440.74, -120008.92, -109817.27, -187500.02, -168630.89, 0.00, 0.00, 0.00, 16:32:23.729
93, -23879.08, -96701.45, -70682.56, -123576.66, -120120.13, -109904.51, -187500.02, -168800.23, 0.00, 0.00, 0.00, 16:32:23.733
94, -23975.71, -96783.20, -70884.80, -123707.87, -120225.83, -109988.48, -187500.02, -169134.45, 0.00, 0.00, 0.00, 16:32:23.737
96, -26566.99, -99276.16, -73664.28, -126278.39, -122793.95, -112446.68, -187500.02, -172470.39, 0.00, 0.00, 0.00, 16:32:23.746
97, -46865.55, -119186.29, -94097.76, -146253.58, -143080.95, -132376.84, -187500.02, -187500.02, 0.00, 0.00, 0.00, 16:32:23.749
98, -74177.99, -145982.80, -121555.29, -173123.33, -170382.14, -159206.94, -187500.02, -187500.02, 0.00, 0.00, 0.00, 16:32:23.754
99, -89266.74, -160770.50, -136761.06, -187500.02, -185453.61, -173996.03, -187500.02, -187500.02, 0.00, 0.00, 0.00, 16:32:23.759
101, -102232.14, -173453.13, -149967.19, -187500.02, -187500.02, -186681.55, -187500.02, -187500.02, 0.00, 0.00, 0.00, 16:32:23.765
102, -106363.01, -177499.11, -154230.77, -187500.02, -187500.02, -187500.02, -187500.02, -187500.02, 0.00, 0.00, 0.00, 16:32:23.768
103, -110212.24, -181262.42, -158205.83, -187500.02, -187500.02, -187500.02, -187500.02, -187500.02, 0.00, 0.00, 0.00, 16:32:23.774
104, -114795.85, -185737.80, -162906.23, -187500.02, -187500.02, -187500.02, -187500.02, -187500.02, 0.00, 0.00, 0.00, 16:32:23.778
107, -129054.05, -187500.02, -177533.42, -187500.02, -187500.02, -187500.02, -187500.02, -187500.02, 0.00, 0.00, 0.00, 16:32:23.790
108, -134150.52, -187500.02, -182726.94, -187500.02, -187500.02, -187500.02, -187500.02, -187500.02, 0.00, 0.00, 0.00, 16:32:23.794
109, -138291.73, -187500.02, -186970.30, -187500.02, -187500.02, -187500.02, -187500.02, -187500.02, 0.14, 0.35, 0.93, 16:32:23.798
110, -142170.64, -187500.02, -187500.02, -187500.02, -187500.02, -187500.02, -187500.02, -187500.02, 0.00, 0.00, 0.00, 16:32:23.801
111, -146754.27, -187500.02, -187500.02, -187500.02, -187500.02, -187500.02, -187500.02, -187500.02, 0.00, 0.00, 0.00, 16:32:23.806
113, -154811.42, -187500.02, -187500.02, -187500.02, -187500.02, -187500.02, -187500.02, -187500.02, 0.00, 0.00, 0.00, 16:32:23.813
115, -159277.11, -187500.02, -187500.02, -187500.02, -187500.02, -187500.02, -187500.02, -187500.02, 0.00, 0.00, 0.00, 16:32:23.822
116, -161780.02, -187500.02, -187500.02, -187500.02, -187500.02, -187500.02, -187500.02, -187500.02, 0.00, 0.00, 0.00, 16:32:23.826
117, -163803.69, -187500.02, -187500.02, -187500.02, -187500.02, -187500.02, -187500.02, -187500.02, 0.00, 0.00, 0.00, 16:32:23.830
118, -164663.23, -187500.02, -187500.02, -187500.02, -187500.02, -187500.02, -187500.02, -187500.02, 0.00, 0.00, 0.00, 16:32:23.833
119, -163661.20, -187500.02, -187500.02, -187500.02, -187500.02, -187500.02, -187500.02, -187500.02, 0.07, 0.29, 1.01, 16:32:23.837
120, -164523.78, -187500.02, -187500.02, -187500.02, -187500.02, -187500.02, -187500.02, -187500.02, 0.00, 0.00, 0.00, 16:32:23.841
121, -166669.08, -187500.02, -187500.02, -187500.02, -187500.02, -187500.02, -187500.02, -187500.02, 0.00, 0.00, 0.00, 16:32:23.844
122, -165809.81, -187500.02, -187500.02, -187500.02, -187500.02, -187500.02, -187500.02, -187500.02, 0.00, 0.00, 0.00, 16:32:23.849
123, -156641.89, -187500.02, -187500.02, -187500.02, -187500.02, -187500.02, -187500.02, -187500.02, 0.00, 0.00, 0.00, 16:32:23.853
124, -148789.05, -187500.02, -187500.02, -187500.02, -187500.02, -187500.02, -187500.02, -187500.02, 0.00, 0.00, 0.00, 16:32:23.859
125, -148683.48, -187500.02, -187500.02, -187500.02, -187500.02, -187500.02, -187500.02, -187500.02, 0.00, 0.00, 0.00, 16:32:23.861
128, -152672.52, -187500.02, -187500.02, -187500.02, -187500.02, -187500.02, -187500.02, -187500.02, 0.00, 0.00, 0.00, 16:32:23.873
129, -170904.31, -187500.02, -187500.02, -187500.02, -187500.02, -187500.02, -187500.02, -187500.02, 0.04, 0.29, 0.98, 16:32:23.878
130, -181937.06, -187500.02, -187500.02, -187500.02, -187500.02, -187500.02, -187500.02, -187500.02, 0.00, 0.00, 0.00, 16:32:23.880
131, -184034.98, -187500.02, -187500.02, -187500.02, -187500.02, -187500.02, -187500.02, -187500.02, 0.00, 0.00, 0.00, 16:32:23.886
133, -187500.02, -187500.02, -187500.02, -187500.02, -187500.02, -187500.02, -187500.02, -187500.02, 0.00, 0.00, 0.00, 16:32:23.893
134, -187500.02, -187500.02, -187500.02, -187500.02, -187500.02, -187500.02, -187500.02, -187500.02, 0.00, 0.00, 0.00, 16:32:23.897
135, -187500.02, -187500.02, -187500.02, -187500.02, -187500.02, -187500.02, -187500.02, -187500.02, 0.00, 0.00, 0.00, 16:32:23.900
136, -187500.02, -187500.02, -187500.02, -187500.02, -187500.02, -187500.02, -187500.02, -187500.02, 0.00, 0.00, 0.00, 16:32:23.908
137, -187500.02, -187500.02, -187500.02, -187500.02, -187500.02, -187500.02, -187500.02, -187500.02, 0.00, 0.00, 0.00, 16:32:23.910
139, -187500.02, -187500.02, -187500.02, -187500.02, -187500.02, -187500.02, -187500.02, -187500.02, 0.07, 0.26, 0.98, 16:32:23.917
141, -187500.02, -187500.02, -187500.02, -187500.02, -187500.02, -187500.02, -187500.02, -187500.02, 0.00, 0.00, 0.00, 16:32:23.923
142, -187500.02, -187500.02, -187500.02, -187500.02, -187500.02, -187500.02, -187500.02, -187500.02, 0.00, 0.00, 0.00, 16:32:23.929
143, -187500.02, -187500.02, -187500.02, -187500.02, -187500.02, -187500.02, -187500.02, -187500.02, 0.00, 0.00, 0.00, 16:32:23.933
144, -187500.02, -187500.02, -187500.02, -187500.02, -187500.02, -187500.02, -187500.02, -187500.02, 0.00, 0.00, 0.00, 16:32:23.937
145, -187500.02, -187500.02, -187500.02, -187500.02, -187500.02, -187500.02, -187500.02, -187500.02, 0.00, 0.00, 0.00, 16:32:23.939
146, -187500.02, -187500.02, -187500.02, -187500.02, -187500.02, -187500.02, -187500.02, -187500.02, 0.00, 0.00, 0.00, 16:32:23.945
147, -187500.02, -187500.02, -187500.02, -187500.02, -187500.02, -187500.02, -187500.02, -187500.02, 0.00, 0.00, 0.00, 16:32:23.949
148, -187500.02, -187500.02, -187500.02, -187500.02, -187500.02, -187500.02, -187500.02, -187500.02, 0.11, 0.25, 1.06, 16:32:23.955
149, -187500.02, -187500.02, -187500.02, -187500.02, -187500.02, -187500.02, -187500.02, -187500.02, 0.00, 0.00, 0.00, 16:32:23.958
152, -187500.02, -187500.02, -187500.02, -187500.02, -187500.02, -187500.02, -187500.02, -187500.02, 0.00, 0.00, 0.00, 16:32:23.968
154, -187500.02, -187500.02, -187500.02, -187500.02, -187500.02, -187500.02, -187500.02, -187500.02, 0.00, 0.00, 0.00, 16:32:23.978
155, -187500.02, -187500.02, -187500.02, -187500.02, -187500.02, -187500.02, -187500.02, -187500.02, 0.00, 0.00, 0.00, 16:32:23.980
156, -187500.02, -187500.02, -187500.02, -187500.02, -187500.02, -187500.02, -187500.02, -187500.02, 0.00, 0.00, 0.00, 16:32:23.985
157, -187500.02, -187500.02, -187500.02, -187500.02, -187500.02, -187500.02, -187500.02, -187500.02, 0.00, 0.00, 0.00, 16:32:23.989
158, -187500.02, -187500.02, -187500.02, -187500.02, -187500.02, -187500.02, -187500.02, -187500.02, 0.07, 0.29, 0.99, 16:32:23.992
159, -187500.02, -187500.02, -187500.02, -187500.02, -187500.02, -187500.02, -187500.02, -187500.02, 0.00, 0.00, 0.00, 16:32:23.997
161, -187500.02, -187500.02, -187500.02, -187500.02, -187500.02, -187500.02, -187500.02, -187500.02, 0.00, 0.00, 0.00, 16:32:24.004
162, -187500.02, -187500.02, -187500.02, -187500.02, -187500.02, -187500.02, -187500.02, -187500.02, 0.00, 0.00, 0.00, 16:32:24.008
163, -187500.02, -187500.02, -187500.02, -187500.02, -187500.02, -187500.02, -187500.02, -187500.02, 0.00, 0.00, 0.00, 16:32:24.012
164, -187500.02, -187500.02, -187500.02, -187500.02, -187500.02, -187500.02, -187500.02, -187500.02, 0.00, 0.00, 0.00, 16:32:24.018
166, -181403.20, -187500.02, -187500.02, -187500.02, -187500.02, -187500.02, -187500.02, -187500.02, 0.00, 0.00, 0.00, 16:32:24.024
167, -177656.64, -187500.02, -187500.02, -187500.02, -187500.02, -187500.02, -187500.02, -187500.02, 0.00, 0.00, 0.00, 16:32:24.029
168, -174224.27, -187500.02, -187500.02, -187500.02, -187500.02, -187500.02, -187500.02, -187500.02, 0.08, 0.26, 1.02, 16:32:24.032
169, -168918.41, -187500.02, -187500.02, -187500.02, -187500.02, -187500.02, -187500.02, -78761.48, 0.00, 0.00, 0.00, 16:32:24.038
170, -169891.56, -187500.02, -187500.02, -187500.02, -187500.02, -187500.02, -187500.02, 77979.98, 0.00, 0.00, 0.00, 16:32:24.042
171, -172010.38, -187500.02, -187500.02, -187500.02, -187500.02, -187500.02, -187500.02, 90597.63, 0.00, 0.00, 0.00, 16:32:24.046
172, -172398.19, -187500.02, -187500.02, -187500.02, -187500.02, -187500.02, -187500.02, 84560.49, 0.00, 0.00, 0.00, 16:32:24.049
174, -173030.08, -187500.02, -187500.02, -187500.02, -187500.02, -187500.02, -187500.02, 82778.61, 0.00, 0.00, 0.00, 16:32:24.057
175, -173913.94, -187500.02, -187500.02, -187500.02, -187500.02, -187500.02, -187500.02, 76127.11, 0.00, 0.00, 0.00, 16:32:24.060
176, -174779.50, -187500.02, -187500.02, -187500.02, -187500.02, -187500.02, -187500.02, 67767.52, 0.00, 0.00, 0.00, 16:32:24.065
177, -175594.83, -187500.02, -187500.02, -187500.02, -187500.02, -187500.02, -187500.02, 58654.35, 0.00, 0.00, 0.00, 16:32:24.068
178, -175982.94, -187500.02, -187500.02, -187500.02, -187500.02, -187500.02, -187500.02, 56731.77, 0.06, 0.25, 1.01, 16:32:24.074
179, -176436.48, -187500.02, -187500.02, -187500.02, -187500.02, -187500.02, -187500.02, 55894.07, 0.00, 0.00, 0.00, 16:32:24.076
180, -176816.53, -187500.02, -187500.02, -187500.02, -187500.02, -187500.02, -187500.02, 54829.23, 0.00, 0.00, 0.00, 16:32:24.081
181, -176999.81, -187500.02, -187500.02, -187500.02, -187500.02, -187500.02, -187500.02, 55797.24, 0.00, 0.00, 0.00, 16:32:24.084
182, -177261.44, -187500.02, -187500.02, -187500.02, -187500.02, -187500.02, -187500.02, 55699.81, 0.00, 0.00, 0.00, 16:32:24.088
183, -177780.42, -187500.02, -187500.02, -187500.02, -187500.02, -187500.02, -187500.02, 53736.68, 0.00, 0.00, 0.00, 16:32:24.093
184, -178209.30, -187500.02, -187500.02, -187500.02, -187500.02, -187500.02, -187500.02, 52031.86, 0.00, 0.00, 0.00, 16:32:24.098
185, -178134.05, -187500.02, -187500.02, -187500.02, -187500.02, -187500.02, -187500.02, 55861.28, 0.00, 0.00, 0.00, 16:32:24.102
186, -177824.53, -187500.02, -187500.02, -187500.02, -187500.02, -187500.02, -187500.02, 63638.41, 0.00, 0.00, 0.00, 16:32:24.104
187, -177780.09, -187500.02, -187500.02, -187500.02, -187500.02, -187500.02, -187500.02, 69573.73, 0.00, 0.00, 0.00, 16:32:24.109
188, -178044.31, -187500.02, -187500.02, -187500.02, -187500.02, -187500.02, -187500.02, 71242.59, 0.13, 0.22, 1.01, 16:32:24.123
189, -178246.17, -187500.02, -187500.02, -187500.02, -187500.02, -187500.02, -187500.02, 71899.86, 0.00, 0.00, 0.00, 16:32:24.126
192, -167056.48, -187500.02, -187500.02, -187500.02, -187500.02, -187500.02, -187500.02, 89972.43, 0.00, 0.00, 0.00, 16:32:24.130
193, -159461.34, -187500.02, -187500.02, -187500.02, -187500.02, -187500.02, -187500.02, 95080.63, 0.00, 0.00, 0.00, 16:32:24.132
194, -149937.78, -187500.02, -184945.91, -187500.02, -187500.02, -187500.02, -115586.37, 100792.82, 0.00, 0.00, 0.00, 16:32:24.137
195, -145211.05, -187500.02, -180312.61, -187500.02, -187500.02, -187500.02, -53143.15, 104437.85, 0.00, 0.00, 0.00, 16:32:24.141
196, -137826.70, -187500.02, -173017.94, -187500.02, -187500.02, -187500.02, -40542.75, 111210.38, 0.00, 0.00, 0.00, 16:32:24.145
197, -131770.48, -184910.91, -167084.64, -187500.02, -187500.02, -187500.02, -38237.53, 114266.65, 0.12, 0.16, 0.97, 16:32:24.148
198, -135421.70, -187500.02, -170884.69, -187500.02, -187500.02, -187500.02, -45967.30, 107531.65, 0.00, 0.00, 0.00, 16:32:24.154
199, -141552.25, -187500.02, -177151.16, -187500.02, -187500.02, -187500.02, -52520.05, 100551.17, 0.00, 0.00, 0.00, 16:32:24.159
200, -145682.78, -187500.02, -181383.86, -187500.02, -187500.02, -187500.02, -54989.20, 99233.56, 0.00, 0.00, 0.00, 16:32:24.161
201, -146565.53, -187500.02, -182373.00, -187500.02, -187500.02, -187500.02, -55787.25, 99455.27, 0.00, 0.00, 0.00, 16:32:24.163
202, -144720.03, -187500.02, -180643.33, -187500.02, -187500.02, -187500.02, -56001.55, 99597.45, 0.00, 0.00, 0.00, 16:32:24.169
203, -142872.39, -187500.02, -178913.73, -187500.02, -187500.02, -187500.02, -55956.96, 100180.98, 0.00, 0.00, 0.00, 16:32:24.173
204, -142849.88, -187500.02, -179000.52, -187500.02, -187500.02, -187500.02, -57682.14, 98761.20, 0.00, 0.00, 0.00, 16:32:24.177
205, -140836.89, -187500.02, -177107.89, -187500.02, -187500.02, -187500.02, -58372.18, 98427.85, 0.00, 0.00, 0.00, 16:32:24.180
206, -137475.20, -187500.02, -173880.73, -187500.02, -187500.02, -187500.02, -57513.63, 100029.26, 0.00, 0.00, 0.00, 16:32:24.186
208, -132505.45, -184758.64, -169153.06, -187500.02, -187500.02, -187500.02, -55645.70, 101872.92, 0.00, 0.00, 0.00, 16:32:24.192
209, -130471.98, -182752.61, -167236.97, -187500.02, -187500.02, -187500.02, -55414.09, 101748.58, 0.00, 0.00, 0.00, 16:32:24.197
210, -127234.06, -179578.80, -164134.75, -187500.02, -187500.02, -118577.09, -55774.93, 101112.76, 0.00, 0.00, 0.00, 16:32:24.201
211, -125374.04, -177757.03, -162413.42, -187500.02, -187500.02, 28483.18, -55261.54, 100648.74, 0.00, 0.00, 0.00, 16:32:24.205
212, -125448.36, -177815.34, -162605.98, -187500.02, -187500.02, 49121.62, -53881.38, 100663.55, 0.00, 0.00, 0.00, 16:32:24.211
216, -145585.94, -187500.02, -183292.19, -187500.02, -187500.02, 60511.80, -48425.45, 103698.50, 0.00, 0.00, 0.00, 16:32:24.224
217, -151463.03, -187500.02, -187500.02, -187500.02, -166560.36, 61631.20, -48998.91, 102467.68, 0.14, 0.10, 0.98, 16:32:24.229
218, -136930.33, -187500.02, -174843.70, -187500.02, 41496.01, 63231.00, -49100.23, 100157.23, 0.00, 0.00, 0.00, 16:32:24.233
219, -130718.20, -182522.23, -168768.38, -187500.02, 118662.77, 66858.23, -47450.45, 100878.88, 0.00, 0.00, 0.00, 16:32:24.236
220, -130685.02, -182482.14, -168872.39, -187500.02, 119265.46, 70380.81, -46339.95, 101050.22, 0.00, 0.00, 0.00, 16:32:24.243
223, -132947.81, -184695.00, -171593.27, -187500.02, 107513.14, 70060.38, -47874.24, 97491.13, 0.00, 0.00, 0.00, 16:32:24.253
224, -132984.56, -184729.67, -171767.47, -187500.02, 106624.12, 70570.45, -46814.18, 100027.61, 0.00, 0.00, 0.00, 16:32:24.257
225, -131070.96, -182832.59, -169961.70, -175481.95, 104988.09, 70734.75, -45490.71, 105558.12, 0.00, 0.00, 0.00, 16:32:24.261
226, -117221.57, -169231.73, -156163.05, 12392.99, 103300.66, 70786.59, -44579.12, 108492.77, 0.00, 0.00, 0.00, 16:32:24.265
227, -111035.08, -163162.63, -150068.95, 95754.58, 102403.30, 70399.68, -44586.59, 111512.27, 0.10, 0.13, 0.96, 16:32:24.271
228, -111814.15, -163924.02, -150958.73, 92209.99, 99014.38, 68965.92, -45353.14, 113898.54, 0.00, 0.00, 0.00, 16:32:24.273
229, -113186.97, -165263.66, -152411.75, 89950.23, 92998.92, 66154.91, -46942.17, 114245.84, 0.00, 0.00, 0.00, 16:32:24.276
230, -116095.60, -168159.25, -155385.88, 80670.55, 83479.00, 59875.38, -51856.92, 110312.52, 0.00, 0.00, 0.00, 16:32:24.281
231, -117708.15, -169736.38, -157130.75, 74654.34, 77181.69, 56046.53, -55083.73, 110890.78, 0.00, 0.00, 0.00, 16:32:24.284
232, -116924.92, -168948.50, -141192.28, 72090.19, 74554.78, 55093.43, -55192.65, 115763.19, 0.00, 0.00, 0.00, 16:32:24.289
233, -106029.63, -158164.27, 21337.98, 70894.61, 73363.52, 55671.00, -54494.64, 117365.83, 0.00, 0.00, 0.00, 16:32:24.293
234, -99285.93, -151487.42, 122590.95, 71312.10, 72803.61, 56477.80, -53849.95, 116584.75, 0.00, 0.00, 0.00, 16:32:24.297
235, -99211.57, -151409.34, 127416.41, 70993.59, 72637.55, 57026.63, -53835.18, 115760.93, 0.00, 0.00, 0.00, 16:32:24.299
236, -99599.99, -151784.56, 126497.59, 69735.12, 72998.20, 57072.47, -54435.88, 115265.57, 0.00, 0.00, 0.00, 16:32:24.303
237, -101442.67, -153550.78, 120500.02, 65956.84, 71471.22, 54354.14, -57893.23, 111200.26, 0.06, 0.14, 0.95, 16:32:24.309
238, -97257.11, -149414.72, 115273.22, 62049.29, 68682.88, 50466.82, -62712.29, 103572.64, 0.00, 0.00, 0.00, 16:32:24.313
239, -73723.43, -126315.23, 112661.17, 59654.61, 66938.17, 47942.46, -66478.02, 108136.62, 0.00, 0.00, 0.00, 16:32:24.316
240, -56057.52, -108981.89, 109860.59, 57073.03, 63900.13, 45226.18, -70532.85, 122869.91, 0.00, 0.00, 0.00, 16:32:24.322
244, -26846.90, 119443.27, 107297.04, 55608.14, 61817.73, 28924.65, -77859.70, 151757.16, 0.00, 0.00, 0.00, 16:32:24.337
246, -21639.48, 114401.68, 106586.13, 56653.91, 60083.81, 25241.29, -78696.96, 156776.38, 0.08, 0.08, 1.01, 16:32:24.344
247, -16370.64, 113409.87, 107343.89, 57331.44, 62766.91, 26306.75, -75778.06, 161936.02, 0.00, 0.00, 0.00, 16:32:24.347
248, -10293.67, 113275.30, 108528.49, 57593.92, 67174.03, 29005.25, -70221.18, 167879.31, 0.00, 0.00, 0.00, 16:32:24.351
249, -7014.25, 113265.47, 109101.23, 58072.38, 70607.51, 31275.16, -66970.36, 171039.20, 0.00, 0.00, 0.00, 16:32:24.357
250, -5235.38, 112870.41, 108416.38, 58004.96, 71365.67, 32029.58, -65212.53, 172724.44, 0.00, 0.00, 0.00, 16:32:24.360
252, 1673.34, 112641.10, 107215.75, 55899.79, 68087.34, 32974.28, -58401.57, 179388.41, 0.00, 0.00, 0.00, 16:32:24.369
253, 3868.33, 111741.55, 106741.20, 54573.88, 66787.91, 32920.50, -56258.31, 181457.73, 0.00, 0.00, 0.00, 16:32:24.373
254, 4650.08, 110020.55, 105979.38, 52531.78, 66031.68, 32123.90, -55512.43, 182140.66, 0.00, 0.00, 0.00, 16:32:24.377
255, 6875.49, 108348.55, 104143.50, 50097.37, 66060.73, 30810.52, -53333.43, 184256.52, 0.00, 0.00, 0.00, 16:32:24.382
2, 10301.16, 101690.69, 98619.89, 41491.79, 66748.70, 26567.08, -50104.50, 187306.42, 0.00, 0.00, 0.00, 16:32:24.391
3, 10823.41, 99512.11, 98099.37, 36430.14, 67935.20, 27023.55, -49635.36, 187500.00, 0.00, 0.00, 0.00, 16:32:24.395
4, 12617.29, 97018.30, 97699.49, 30641.87, 67332.13, 28809.70, -47912.17, 187500.00, 0.00, 0.00, 0.00, 16:32:24.400
5, 12496.48, 94266.60, 97097.85, 25305.04, 64444.79, 28696.98, -48131.48, 187500.00, 0.00, 0.00, 0.00, 16:32:24.406
6, 11964.55, 94474.65, 99149.70, 23160.85, 63892.41, 28201.29, -48744.04, 187500.00, 0.00, 0.00, 0.00, 16:32:24.410
7, 11430.66, 93270.65, 99107.68, 20762.78, 63120.27, 27715.85, -49343.84, 187500.00, 0.00, 0.00, 0.00, 16:32:24.425
9, 12157.65, 90353.34, 94022.90, 17344.57, 59259.14, 28433.68, -48791.44, 187500.00, 0.00, 0.00, 0.00, 16:32:24.425
11, 8906.25, 85779.40, 86893.48, 15724.90, 52747.57, 25295.31, -52187.05, 184774.84, 0.00, 0.00, 0.00, 16:32:24.430
13, 6863.24, 79125.53, 80060.08, 17857.03, 45676.21, 23284.84, -54410.00, 182446.06, 0.00, 0.00, 0.00, 16:32:24.435
14, 6096.95, 76656.96, 79069.74, 20870.38, 43851.46, 22541.15, -55257.18, 181551.91, 0.00, 0.00, 0.00, 16:32:24.440
15, 5153.89, 73611.53, 79567.71, 22933.69, 42592.77, 21647.84, -56263.03, 180501.06, 0.00, 0.00, 0.00, 16:32:24.445
16, 5735.41, 69566.45, 80814.65, 23547.54, 41349.12, 22223.58, -55761.12, 180951.56, 0.00, 0.00, 0.00, 16:32:24.447
17, 6832.77, 64717.21, 81879.13, 23481.36, 40393.13, 23291.70, -54753.84, 181905.03, 0.00, 0.00, 0.00, 16:32:24.450
18, 6998.64, 59805.93, 82709.90, 22830.74, 39673.29, 23457.64, -54670.73, 181938.77, 0.00, 0.00, 0.00, 16:32:24.455
19, 6733.93, 56514.84, 83993.29, 21339.39, 39346.73, 23229.79, -55000.49, 181565.30, 0.00, 0.00, 0.00, 16:32:24.460
23, -15670.41, 22455.39, 40090.63, -14960.76, 12905.61, 1378.97, -77662.84, 158711.78, 0.00, 0.00, 0.00, 16:32:24.477
25, -30769.16, 7575.21, 8373.83, -30996.55, -3427.28, -13422.27, -92938.93, 143345.36, 0.00, 0.00, 0.00, 16:32:24.483
26, -36881.74, 1529.89, -3338.93, -37221.93, -10069.88, -19430.79, -99153.03, 137084.31, 0.00, 0.00, 0.00, 16:32:24.489
31, -50904.33, -48907.54, -23758.00, -50882.31, -23439.42, -44954.59, -113586.45, 122428.57, 0.00, 0.00, 0.00, 16:32:24.509
32, -52726.73, -50289.55, -24058.66, -50697.69, -24363.98, -47840.04, -115480.66, 120493.60, 0.00, 0.00, 0.00, 16:32:24.513
37, -55254.92, -52172.97, -8687.99, -55124.03, -22769.32, -49190.98, -118473.96, 117270.34, 0.00, 0.00, 0.00, 16:32:24.532
38, -55414.20, -52301.38, -4276.09, -58717.23, -23378.18, -50715.46, -118743.08, 116951.41, 0.00, 0.00, 0.00, 16:32:24.537
39, -56683.57, -53514.57, -1676.22, -62028.08, -25392.65, -53232.40, -120104.59, 115546.02, 0.07, 0.04, 0.95, 16:32:24.541
40, -58018.60, -54790.43, 2741.84, -65126.19, -28780.20, -55431.59, -121509.53, 114104.55, 0.00, 0.00, 0.00, 16:32:24.546
41, -59249.04, -55994.63, 1139.96, -67851.71, -32224.49, -57312.13, -122827.57, 112745.68, 0.00, 0.00, 0.00, 16:32:24.548
42, -59812.02, -56551.63, -2838.18, -69126.77, -34047.79, -58414.43, -123494.70, 112031.90, 0.00, 0.00, 0.00, 16:32:24.553
43, -60211.21, -56931.93, -3670.63, -69312.91, -34541.69, -59134.31, -123986.51, 111495.80, 0.00, 0.00, 0.00, 16:32:24.556
49, -30289.76, -27332.32, 25381.28, -37657.46, -7763.68, -32533.68, -94647.01, 140588.33, 0.13, 0.02, 0.95, 16:32:24.581
50, -24262.46, -21422.60, 31280.33, -31805.68, -2269.82, -26627.01, -88720.20, 146465.19, 0.00, 0.00, 0.00, 16:32:24.583
51, -20759.49, -17992.35, 34654.03, -28432.09, 1184.93, -23196.88, -85320.27, 149819.72, 0.00, 0.00, 0.00, 16:32:24.588
52, -19230.23, -16476.25, 36058.84, -26971.42, 2696.83, -21657.25, -83864.50, 151241.23, 0.00, 0.00, 0.00, 16:32:24.592
53, -15896.27, -13183.75, 39262.47, -23744.64, 5998.22, -18357.98, -80604.57, 154462.97, 0.00, 0.00, 0.00, 16:32:24.595
55, -8091.33, -5529.51, 46775.79, -16231.25, 13693.53, -10742.78, -73015.03, 161955.13, 0.00, 0.00, 0.00, 16:32:24.605
56, -6111.08, -3579.41, 48628.81, -14328.94, 15650.15, -8779.92, -71104.65, 163825.27, 0.00, 0.00, 0.00, 16:32:24.609
57, -3269.88, -777.48, 51350.16, -11573.80, 18471.01, -5953.50, -68325.39, 166568.80, 0.00, 0.00, 0.00, 16:32:24.613
58, 3309.31, 5675.24, 57801.00, -5168.46, 24809.56, 496.52, -61839.45, 173009.47, 0.00, 0.00, 0.00, 16:32:24.615
59, 5310.95, 7625.43, 59658.32, -3914.89, 19758.58, 1696.97, -59953.50, 174848.73, 0.10, -0.03, 0.98, 16:32:24.620
60, 5320.48, 7640.07, 59536.30, -9403.51, 11812.99, -2513.70, -60025.50, 174738.16, 0.00, 0.00, 0.00, 16:32:24.625
61, -155.37, 2185.06, 54022.38, -18429.41, 7018.58, -8883.12, -65495.06, 169229.14, 0.00, 0.00, 0.00, 16:32:24.627
62, -18557.63, -16047.03, 35590.04, -36967.91, -9311.87, -25762.66, -83910.37, 150767.42, 0.00, 0.00, 0.00, 16:32:24.631
63, -27614.55, -24961.62, 26349.11, -42918.30, -16028.77, -34667.58, -93107.64, 141525.78, 0.00, 0.00, 0.00, 16:32:24.636
64, -28821.30, -26117.50, 24982.61, -39668.73, -14152.03, -34588.23, -94678.88, 140204.20, 0.00, 0.00, 0.00, 16:32:24.638
65, -24975.50, -22307.08, 24060.60, -33968.21, -6625.64, -29111.00, -101609.69, 143994.22, 0.00, 0.00, 0.00, 16:32:24.642
66, -25932.74, -23273.64, 931.80, -34180.15, -4829.03, -27900.61, -117755.16, 142896.80, 0.00, 0.00, 0.00, 16:32:24.648
67, -29203.02, -26510.82, -9428.46, -35886.33, -6774.03, -27646.40, -123677.31, 139454.92, 0.00, 0.00, 0.00, 16:32:24.652
68, -31082.92, -28335.13, -9090.95, -35169.66, -9639.28, -26806.60, -127068.81, 137416.42, 0.00, 0.00, 0.00, 16:32:24.657
70, -26644.93, -23872.73, -2485.87, -27929.11, -15791.44, -22413.81, -126599.88, 141566.80, 0.00, 0.00, 0.00, 16:32:24.663
71, -22678.01, -19989.41, 994.85, -25536.46, -14045.08, -22090.81, -127762.59, 144664.94, 0.00, 0.00, 0.00, 16:32:24.667
72, -23745.35, -21114.48, -5911.61, -29368.74, -19172.59, -26323.96, -132130.48, 102108.55, 0.00, 0.00, 0.00, 16:32:24.671
73, -32877.34, -30133.44, -18789.70, -37365.54, -24766.09, -31088.39, -139243.66, 24721.01, 0.00, 0.00, 0.00, 16:32:24.677
74, -37957.33, -35123.62, -26255.39, -42775.67, -25511.07, -33182.08, -143037.88, 11070.97, 0.00, 0.00, 0.00, 16:32:24.679
75, -43396.18, -40504.18, -34629.29, -48776.36, -30042.55, -38176.60, -145352.05, 7061.88, 0.00, 0.00, 0.00, 16:32:24.683
76, -48617.79, -45629.61, -39940.04, -52304.67, -32914.55, -44922.69, -147792.77, 6494.84, 0.00, 0.00, 0.00, 16:32:24.688
77, -42936.49, -39923.54, -28153.47, -44897.32, -26019.93, -44836.86, -145353.08, 14527.96, 0.00, 0.00, 0.00, 16:32:24.693
80, 14270.56, 16164.96, -14042.68, -39585.12, -19049.34, -39486.59, -141547.83, 24122.87, 0.00, 0.00, 0.00, 16:32:24.702
81, 16199.83, 18089.36, -11092.05, -37420.82, -21756.58, -40302.29, -136308.98, 21554.59, 0.00, 0.00, 0.00, 16:32:24.707
82, 21611.65, 23471.77, -253.83, -33734.59, -21724.76, -35310.52, -123866.75, 22837.20, 0.00, 0.00, 0.00, 16:32:24.712
83, 26483.64, 28258.21, 5666.30, -32238.86, -19681.43, -31872.92, -107852.28, 24633.70, 0.00, 0.00, 0.00, 16:32:24.717
84, 25479.38, 27296.62, 14436.75, -28166.26, -13673.48, -29873.69, -91331.68, 27163.96, 0.00, 0.00, 0.00, 16:32:24.720
85, 21273.23, 23222.21, 28314.27, -19865.45, -7445.16, -26212.16, -89805.87, 31703.40, 0.00, 0.00, 0.00, 16:32:24.723
86, 12106.69, 14285.18, 27568.04, -10664.38, -4468.23, -21060.48, -94486.34, 38558.41, 0.00, 0.00, 0.00, 16:32:24.728
88, -153099.14, -147876.72, -136975.06, 2277.69, -353.31, -4828.36, -80515.23, 65598.81, 0.16, -0.04, 0.97, 16:32:24.734
89, -159797.89, -154455.64, -143819.77, 8371.98, 9530.92, 8800.31, -76738.99, 65301.11, 0.00, 0.00, 0.00, 16:32:24.738
90, -157532.67, -152214.03, -141655.16, 14012.84, 19242.95, 23151.13, -71599.84, 65297.54, 0.00, 0.00, 0.00, 16:32:24.743
91, -156372.48, -151077.09, -140617.55, 16286.69, 24313.36, 27009.91, -67124.95, 68849.65, 0.00, 0.00, 0.00, 16:32:24.748
93, -155711.20, -150459.73, -140224.94, 15502.63, 23050.95, 28839.96, -64442.07, 80088.51, 0.00, 0.00, 0.00, 16:32:24.755
94, -155827.80, -150559.47, -140436.05, 13637.65, 21616.21, 27581.34, -59573.59, 83909.43, 0.00, 0.00, 0.00, 16:32:24.759
95, -155286.97, -150029.52, -140009.80, 12245.31, 22408.94, 30988.64, -54025.71, 87088.67, 0.00, 0.00, 0.00, 16:32:24.764
96, -155365.25, -150124.08, -140225.05, 11789.34, 19058.84, 29519.41, -51854.52, 91570.60, 0.00, 0.00, 0.00, 16:32:24.768
97, -155997.95, -150757.08, -140989.39, 11033.74, 10706.46, 30228.39, -53198.43, 95655.00, 0.00, 0.00, 0.00, 16:32:24.772
98, -156229.14, -150971.36, -141317.27, 10658.32, 4647.98, 31741.46, -49601.13, 99166.77, 0.12, -0.02, 1.00, 16:32:24.776
99, -155794.47, -150540.56, -140991.83, 10914.58, 3858.00, 30665.61, -38720.57, 100527.13, 0.00, 0.00, 0.00, 16:32:24.780
100, -157107.86, -151845.52, -142447.86, 9401.25, 416.50, 24151.24, -35225.88, 94019.75, 0.00, 0.00, 0.00, 16:32:24.784
102, -157886.06, -152615.56, -143464.80, 8291.49, -1787.74, 25242.29, -25546.93, 82079.02, 0.00, 0.00, 0.00, 16:32:24.790
103, -157975.47, -152694.80, -143654.09, 8078.81, 6927.57, 26045.59, -27863.44, 80094.05, 0.00, 0.00, 0.00, 16:32:24.796
104, -157191.47, -151940.11, -142998.31, 8672.54, 15037.87, 26833.96, -24632.09, 81114.27, 0.00, 0.00, 0.00, 16:32:24.801
107, -156498.17, -151264.23, -142648.61, 8916.18, 10199.28, 37642.53, -17308.68, 89204.05, 0.00, 0.00, 0.00, 16:32:24.811
108, -157770.16, -152521.86, -144047.88, 7506.50, 8812.85, 28923.92, -18068.12, 87963.99, 0.09, -0.00, 1.01, 16:32:24.815
109, -159883.39, -154613.69, -146300.86, 5251.50, 6567.68, 17406.29, -23476.91, 83452.67, 0.00, 0.00, 0.00, 16:32:24.819
110, -161867.80, -156562.34, -148402.22, 3165.16, 4492.48, 8621.47, -29505.53, 80121.41, 0.00, 0.00, 0.00, 16:32:24.825
111, -163307.58, -157963.08, -149939.39, 1653.40, 2999.47, 1832.08, -32099.43, 78874.52, 0.00, 0.00, 0.00, 16:32:24.828
112, -164317.69, -158962.16, -151071.88, 518.29, 1892.10, -4386.44, -34259.72, 79598.78, 0.00, 0.00, 0.00, 16:32:24.831
114, -164948.72, -159607.67, -151963.73, -416.10, 1043.11, -9534.81, -34676.41, 84554.43, 0.00, 0.00, 0.00, 16:32:24.839
115, -165372.73, -160013.47, -152490.45, -931.67, 567.58, -10545.64, -35026.21, 87052.46, 0.00, 0.00, 0.00, 16:32:24.844
116, -165736.02, -160372.52, -152972.19, -1419.36, 116.63, -13024.45, -34854.48, 90286.70, 0.00, 0.00, 0.00, 16:32:24.848
117, -166464.03, -161102.34, -153834.69, -2296.69, -729.70, -16262.26, -35991.98, 88848.02, 0.00, 0.00, 0.00, 16:32:24.851
118, -166683.38, -161328.09, -154179.91, -2658.65, -1047.31, -16322.58, -33133.09, 86378.29, 0.12, -0.01, 1.03, 16:32:24.857
119, -166249.86, -160895.11, -153846.02, -2329.92, -662.98, -12621.45, -27364.99, 87400.64, 0.00, 0.00, 0.00, 16:32:24.860
120, -165690.81, -160348.17, -153400.17, -1899.59, -178.23, -7994.01, -25625.11, 92284.38, 0.00, 0.00, 0.00, 16:32:24.863
121, -165553.53, -160227.56, -153394.58, -1918.49, -150.65, -6184.21, -27279.68, 96826.50, 0.00, 0.00, 0.00, 16:32:24.867
122, -166674.25, -161339.25, -154646.00, -3168.56, -1375.95, -8799.30, -32956.46, 95435.38, 0.00, 0.00, 0.00, 16:32:24.870
123, -167288.66, -161933.23, -155367.97, -3872.48, -2045.10, -9895.65, -33734.61, 95022.80, 0.00, 0.00, 0.00, 16:32:24.876
124, -166240.25, -160898.69, -154427.91, -2949.25, -1059.74, -8871.76, -26542.72, 102020.47, 0.00, 0.00, 0.00, 16:32:24.881
126, -163796.22, -158526.30, -152235.69, -839.51, 1180.98, -6609.01, -5349.15, 113886.80, 0.00, 0.00, 0.00, 16:32:24.888
127, -163874.84, -158599.55, -152419.61, -1017.09, 1043.58, -6693.32, -3897.54, 121582.73, 0.09, 0.03, 0.99, 16:32:24.892
128, -163211.45, -157942.66, -151858.78, -463.40, 1651.44, -6038.14, -983.52, 128636.16, 0.00, 0.00, 0.00, 16:32:24.896
129, -163085.92, -157830.13, -151856.72, -478.55, 1682.04, -5971.40, 2307.37, 129535.91, 0.00, 0.00, 0.00, 16:32:24.898
130, -163216.61, -157972.00, -152115.97, -754.17, 1446.05, -6175.14, 3801.54, 127678.28, 0.00, 0.00, 0.00, 16:32:24.903
131, -163340.22, -158092.86, -152350.30, -985.98, 1253.80, -5725.49, 9156.75, 124863.75, 0.00, 0.00, 0.00, 16:32:24.908
132, -162058.28, -156827.34, -151169.16, 182.48, 2488.58, 3762.33, 14412.05, 130140.39, 0.00, 0.00, 0.00, 16:32:24.912
133, -160220.63, -155031.06, -149450.27, 1860.76, 4243.57, 19042.14, 16849.08, 134496.66, 0.00, 0.00, 0.00, 16:32:24.917
134, -147313.33, -142374.61, -136649.55, 14394.84, 17028.25, 26292.38, 19310.19, 123366.09, 0.00, 0.00, 0.00, 16:32:24.920
135, -109935.46, -105686.06, -99320.45, 51003.62, 54289.39, 32512.04, 23810.17, 116394.25, 0.00, 0.00, 0.00, 16:32:24.924
137, -74071.53, -70479.41, -63604.37, 86015.50, 70183.98, 55226.35, 25094.12, 130023.70, -0.02, -0.03, 1.09, 16:32:24.929
138, -66337.59, -62903.77, -55985.84, 93440.50, 39417.95, 65673.11, 15299.54, 129613.20, 0.00, 0.00, 0.00, 16:32:24.935
139, -64266.56, -60879.38, -54029.46, 95343.11, 42088.85, 64495.13, 15029.63, 118231.52, 0.00, 0.00, 0.00, 16:32:24.937
140, -64739.19, -61333.57, -54600.23, 94791.42, 39723.90, 58280.07, 13024.92, 112775.19, 0.00, 0.00, 0.00, 16:32:24.942
143, -67837.92, -64404.00, -58073.23, 91340.13, 28560.81, 37545.07, -1380.91, 109326.06, 0.00, 0.00, 0.00, 16:32:24.956
144, -66994.81, -63566.82, -57326.61, 92082.79, 36572.01, 39794.66, 7342.35, 110137.97, 0.00, 0.00, 0.00, 16:32:24.959
145, -63432.73, -60067.79, -53866.47, 95476.81, 39377.25, 41002.80, 8383.78, 113640.13, 0.00, 0.00, 0.00, 16:32:24.963
146, -64752.27, -61376.26, -55315.67, 94034.81, 31234.51, 32991.80, 4189.45, 112214.65, 0.00, 0.00, 0.00, 16:32:24.966
