%OpenBCI Raw EEG Data
%
%Sample Rate = 250.0 Hz
%First Column = SampleIndex
%Last Column = Timestamp 
%Other Columns = EEG data in microvolts followed by Accel Data (in G) interleaved with Aux Data
0, 0.00, 0.00, 0.00, 0.00, 0.00, 0.00, 0.00, 0.00, 0.00, 0.00, 0.00, 10:32:37.727
1, 14179.05, -187500.02, -187500.02, -187500.02, -187500.02, -164117.72, -187500.02, -187500.02, -0.01, -0.24, 0.98, 10:32:37.744
2, 13995.66, -187500.02, -187500.02, -187500.02, -187500.02, -164137.59, -187500.02, -187500.02, 0.00, 0.00, 0.00, 10:32:37.747
3, 13731.53, -187500.02, -187500.02, -187500.02, -187500.02, -164188.02, -187500.02, -187500.02, 0.00, 0.00, 0.00, 10:32:37.751
4, 13876.50, -187500.02, -187500.02, -187500.02, -187500.02, -164161.63, -187500.02, -187500.02, 0.00, 0.00, 0.00, 10:32:37.755
5, 14176.10, -187500.02, -187500.02, -187500.02, -187500.02, -164120.34, -187500.02, -187500.02, 0.00, 0.00, 0.00, 10:32:37.759
6, 14115.19, -187500.02, -187500.02, -187500.02, -187500.02, -164174.63, -187500.02, -187500.02, 0.00, 0.00, 0.00, 10:32:37.762
7, 13784.59, -187500.02, -187500.02, -187500.02, -187500.02, -164249.20, -187500.02, -187500.02, 0.00, 0.00, 0.00, 10:32:37.766
8, 13820.26, -187500.02, -187500.02, -187500.02, -187500.02, -164209.41, -187500.02, -187500.02, 0.00, -0.20, 1.00, 10:32:37.770
9, 14142.53, -187500.02, -187500.02, -187500.02, -187500.02, -164191.58, -187500.02, -187500.02, 0.00, 0.00, 0.00, 10:32:37.774
10, 14101.25, -187500.02, -187500.02, -187500.02, -187500.02, -164186.56, -187500.02, -187500.02, 0.00, 0.00, 0.00, 10:32:37.779
11, 13747.71, -187500.02, -187500.02, -187500.02, -187500.02, -164192.36, -187500.02, -187500.02, 0.00, 0.00, 0.00, 10:32:37.783
12, 13731.08, -187500.02, -187500.02, -187500.02, -187500.02, -164159.52, -187500.02, -187500.02, 0.00, 0.00, 0.00, 10:32:37.786
13, 14145.82, -187500.02, -187500.02, -187500.02, -187500.02, -164185.25, -187500.02, -187500.02, 0.00, 0.00, 0.00, 10:32:37.790
14, 14278.56, -187500.02, -187500.02, -187500.02, -187500.02, -164274.78, -187500.02, -187500.02, 0.00, 0.00, 0.00, 10:32:37.794
15, 13931.73, -187500.02, -187500.02, -187500.02, -187500.02, -164338.27, -187500.02, -187500.02, 0.00, 0.00, 0.00, 10:32:37.799
16, 13777.06, -187500.02, -187500.02, -187500.02, -187500.02, -164307.94, -187500.02, -187500.02, 0.00, 0.00, 0.00, 10:32:37.802
17, 14080.57, -187500.02, -187500.02, -187500.02, -187500.02, -164262.58, -187500.02, -187500.02, 0.00, -0.20, 1.00, 10:32:37.807
18, 14212.22, -187500.02, -187500.02, -187500.02, -187500.02, -164260.42, -187500.02, -187500.02, 0.00, 0.00, 0.00, 10:32:37.811
19, 13909.80, -187500.02, -187500.02, -187500.02, -187500.02, -164282.67, -187500.02, -187500.02, 0.00, 0.00, 0.00, 10:32:37.814
20, 13727.26, -187500.02, -187500.02, -187500.02, -187500.02, -164299.42, -187500.02, -187500.02, 0.00, 0.00, 0.00, 10:32:37.819
21, 14017.52, -187500.02, -187500.02, -187500.02, -187500.02, -164293.00, -187500.02, -187500.02, 0.00, 0.00, 0.00, 10:32:37.823
22, 14252.48, -187500.02, -187500.02, -187500.02, -187500.02, -164294.13, -187500.02, -187500.02, 0.00, 0.00, 0.00, 10:32:37.826
23, 14003.12, -187500.02, -187500.02, -187500.02, -187500.02, -164319.53, -187500.02, -187500.02, 0.00, 0.00, 0.00, 10:32:37.830
24, 13744.96, -187500.02, -187500.02, -187500.02, -187500.02, -164343.50, -187500.02, -187500.02, 0.00, 0.00, 0.00, 10:32:37.835
25, 13915.17, -187500.02, -187500.02, -187500.02, -187500.02, -164296.52, -187500.02, -187500.02, 0.00, 0.00, 0.00, 10:32:37.838
26, 14187.55, -187500.02, -187500.02, -187500.02, -187500.02, -164278.47, -187500.02, -187500.02, 0.00, 0.00, 0.00, 10:32:37.843
27, 14030.77, -187500.02, -187500.02, -187500.02, -187500.02, -164323.94, -187500.02, -187500.02, 0.00, -0.19, 0.99, 10:32:37.847
28, 13748.42, -187500.02, -187500.02, -187500.02, -187500.02, -164371.80, -187500.02, -187500.02, 0.00, 0.00, 0.00, 10:32:37.850
29, 13856.43, -187500.02, -187500.02, -187500.02, -187500.02, -164348.59, -187500.02, -187500.02, 0.00, 0.00, 0.00, 10:32:37.854
30, 14181.64, -187500.02, -187500.02, -187500.02, -187500.02, -164321.03, -187500.02, -187500.02, 0.00, 0.00, 0.00, 10:32:37.859
31, 14150.38, -187500.02, -187500.02, -187500.02, -187500.02, -164380.42, -187500.02, -187500.02, 0.00, 0.00, 0.00, 10:32:37.864
32, 13832.33, -187500.02, -187500.02, -187500.02, -187500.02, -164444.17, -187500.02, -187500.02, 0.00, 0.00, 0.00, 10:32:37.866
33, 13843.84, -187500.02, -187500.02, -187500.02, -187500.02, -164421.50, -187500.02, -187500.02, 0.00, 0.00, 0.00, 10:32:37.870
34, 14157.35, -187500.02, -187500.02, -187500.02, -187500.02, -164382.70, -187500.02, -187500.02, 0.00, 0.00, 0.00, 10:32:37.874
35, 14170.92, -187500.02, -187500.02, -187500.02, -187500.02, -164413.80, -187500.02, -187500.02, 0.00, 0.00, 0.00, 10:32:37.879
36, 13815.46, -187500.02, -187500.02, -187500.02, -187500.02, -164442.16, -187500.02, -187500.02, 0.00, 0.00, 0.00, 10:32:37.882
37, 13754.95, -187500.02, -187500.02, -187500.02, -187500.02, -164419.06, -187500.02, -187500.02, -0.00, -0.19, 0.99, 10:32:37.886
38, 14045.01, -187500.02, -187500.02, -187500.02, -187500.02, -164354.61, -187500.02, -187500.02, 0.00, 0.00, 0.00, 10:32:37.891
39, 14185.38, -187500.02, -187500.02, -187500.02, -187500.02, -164364.39, -187500.02, -187500.02, 0.00, 0.00, 0.00, 10:32:37.894
40, 13941.05, -187500.02, -187500.02, -187500.02, -187500.02, -164463.97, -187500.02, -187500.02, 0.00, 0.00, 0.00, 10:32:37.897
41, 13820.93, -187500.02, -187500.02, -187500.02, -187500.02, -164498.13, -187500.02, -187500.02, 0.00, 0.00, 0.00, 10:32:37.902
42, 14075.90, -187500.02, -187500.02, -187500.02, -187500.02, -164453.92, -187500.02, -187500.02, 0.00, 0.00, 0.00, 10:32:37.906
43, 14237.46, -187500.02, -187500.02, -187500.02, -187500.02, -164452.75, -187500.02, -187500.02, 0.00, 0.00, 0.00, 10:32:37.911
44, 13940.74, -187500.02, -187500.02, -187500.02, -187500.02, -164484.73, -187500.02, -187500.02, 0.00, 0.00, 0.00, 10:32:37.914
45, 13735.71, -187500.02, -187500.02, -187500.02, -187500.02, -164510.98, -187500.02, -187500.02, 0.00, 0.00, 0.00, 10:32:37.919
46, 13935.26, -187500.02, -187500.02, -187500.02, -187500.02, -164445.33, -187500.02, -187500.02, 0.00, 0.00, 0.00, 10:32:37.922
47, 14189.38, -187500.02, -187500.02, -187500.02, -187500.02, -164447.23, -187500.02, -187500.02, 0.00, -0.19, 1.00, 10:32:37.926
48, 14009.98, -187500.02, -187500.02, -187500.02, -187500.02, -164525.50, -187500.02, -187500.02, 0.00, 0.00, 0.00, 10:32:37.930
49, 13740.87, -187500.02, -187500.02, -187500.02, -187500.02, -164545.61, -187500.02, -187500.02, 0.00, 0.00, 0.00, 10:32:37.934
50, 13920.08, -187500.02, -187500.02, -187500.02, -187500.02, -164526.27, -187500.02, -187500.02, 0.00, 0.00, 0.00, 10:32:37.939
51, 14177.24, -187500.02, -187500.02, -187500.02, -187500.02, -164488.03, -187500.02, -187500.02, 0.00, 0.00, 0.00, 10:32:37.942
52, 14029.30, -187500.02, -187500.02, -187500.02, -187500.02, -164530.42, -187500.02, -187500.02, 0.00, 0.00, 0.00, 10:32:37.947
53, 13731.97, -187500.02, -187500.02, -187500.02, -187500.02, -164569.83, -187500.02, -187500.02, 0.00, 0.00, 0.00, 10:32:37.951
54, 13836.02, -187500.02, -187500.02, -187500.02, -187500.02, -164527.25, -187500.02, -187500.02, 0.00, 0.00, 0.00, 10:32:37.953
55, 14161.80, -187500.02, -187500.02, -187500.02, -187500.02, -164522.83, -187500.02, -187500.02, 0.00, 0.00, 0.00, 10:32:37.958
56, 14110.90, -187500.02, -187500.02, -187500.02, -187500.02, -164531.55, -187500.02, -187500.02, 0.00, 0.00, 0.00, 10:32:37.963
57, 13797.08, -187500.02, -187500.02, -187500.02, -187500.02, -164602.13, -187500.02, -187500.02, 0.00, -0.19, 1.00, 10:32:37.967
58, 13788.41, -187500.02, -187500.02, -187500.02, -187500.02, -164577.41, -187500.02, -187500.02, 0.00, 0.00, 0.00, 10:32:37.970
59, 14121.70, -187500.02, -187500.02, -187500.02, -187500.02, -164547.38, -187500.02, -187500.02, 0.00, 0.00, 0.00, 10:32:37.974
60, 14131.53, -187500.02, -187500.02, -187500.02, -187500.02, -164562.95, -187500.02, -187500.02, 0.00, 0.00, 0.00, 10:32:37.978
61, 13815.61, -187500.02, -187500.02, -187500.02, -187500.02, -164613.69, -187500.02, -187500.02, 0.00, 0.00, 0.00, 10:32:37.982
62, 13760.54, -187500.02, -187500.02, -187500.02, -187500.02, -164616.14, -187500.02, -187500.02, 0.00, 0.00, 0.00, 10:32:37.985
63, 14046.13, -187500.02, -187500.02, -187500.02, -187500.02, -164566.14, -187500.02, -187500.02, 0.00, 0.00, 0.00, 10:32:37.990
64, 14154.80, -187500.02, -187500.02, -187500.02, -187500.02, -164549.72, -187500.02, -187500.02, 0.00, 0.00, 0.00, 10:32:37.995
65, 13958.64, -187500.02, -187500.02, -187500.02, -187500.02, -164660.78, -187500.02, -187500.02, 0.00, 0.00, 0.00, 10:32:37.999
66, 13842.77, -187500.02, -187500.02, -187500.02, -187500.02, -164728.84, -187500.02, -187500.02, 0.00, -0.19, 1.00, 10:32:38.001
67, 14049.10, -187500.02, -187500.02, -187500.02, -187500.02, -164670.02, -187500.02, -187500.02, 0.00, 0.00, 0.00, 10:32:38.005
68, 14189.18, -187500.02, -187500.02, -187500.02, -187500.02, -164612.45, -187500.02, -187500.02, 0.00, 0.00, 0.00, 10:32:38.009
69, 13941.92, -187500.02, -187500.02, -187500.02, -187500.02, -164673.61, -187500.02, -187500.02, 0.00, 0.00, 0.00, 10:32:38.015
70, 13720.68, -187500.02, -187500.02, -187500.02, -187500.02, -164698.33, -187500.02, -187500.02, 0.00, 0.00, 0.00, 10:32:38.019
71, 13968.50, -187500.02, -187500.02, -187500.02, -187500.02, -164693.28, -187500.02, -187500.02, 0.00, 0.00, 0.00, 10:32:38.023
72, 14181.26, -187500.02, -187500.02, -187500.02, -187500.02, -164653.31, -187500.02, -187500.02, 0.00, 0.00, 0.00, 10:32:38.026
73, 14026.86, -187500.02, -187500.02, -187500.02, -187500.02, -164709.03, -187500.02, -187500.02, 0.00, 0.00, 0.00, 10:32:38.030
74, 13786.06, -187500.02, -187500.02, -187500.02, -187500.02, -164794.02, -187500.02, -187500.02, 0.00, 0.00, 0.00, 10:32:38.034
75, 13904.62, -187500.02, -187500.02, -187500.02, -187500.02, -164745.00, -187500.02, -187500.02, 0.00, 0.00, 0.00, 10:32:38.037
76, 14196.73, -187500.02, -187500.02, -187500.02, -187500.02, -164729.72, -187500.02, -187500.02, 0.00, -0.20, 1.00, 10:32:38.041
77, 14067.88, -187500.02, -187500.02, -187500.02, -187500.02, -164761.45, -187500.02, -187500.02, 0.00, 0.00, 0.00, 10:32:38.046
78, 13755.46, -187500.02, -187500.02, -187500.02, -187500.02, -164807.94, -187500.02, -187500.02, 0.00, 0.00, 0.00, 10:32:38.050
79, 13801.38, -187500.02, -187500.02, -187500.02, -187500.02, -164759.27, -187500.02, -187500.02, 0.00, 0.00, 0.00, 10:32:38.055
80, 14115.64, -187500.02, -187500.02, -187500.02, -187500.02, -164715.67, -187500.02, -187500.02, 0.00, 0.00, 0.00, 10:32:38.057
81, 14130.75, -187500.02, -187500.02, -187500.02, -187500.02, -164767.17, -187500.02, -187500.02, 0.00, 0.00, 0.00, 10:32:38.061
82, 13836.78, -187500.02, -187500.02, -187500.02, -187500.02, -164857.92, -187500.02, -187500.02, 0.00, 0.00, 0.00, 10:32:38.066
83, 13814.36, -187500.02, -187500.02, -187500.02, -187500.02, -164868.97, -187500.02, -187500.02, 0.00, 0.00, 0.00, 10:32:38.069
84, 14098.94, -187500.02, -187500.02, -187500.02, -187500.02, -164799.83, -187500.02, -187500.02, 0.00, 0.00, 0.00, 10:32:38.075
85, 14116.67, -187500.02, -187500.02, -187500.02, -187500.02, -164794.02, -187500.02, -187500.02, 0.00, 0.00, 0.00, 10:32:38.079
86, 13779.65, -187500.02, -187500.02, -187500.02, -187500.02, -164815.55, -187500.02, -187500.02, 0.00, -0.20, 1.00, 10:32:38.083
87, 13711.72, -187500.02, -187500.02, -187500.02, -187500.02, -164824.91, -187500.02, -187500.02, 0.00, 0.00, 0.00, 10:32:38.085
88, 14037.45, -187500.02, -187500.02, -187500.02, -187500.02, -164798.27, -187500.02, -187500.02, 0.00, 0.00, 0.00, 10:32:38.089
89, 14226.17, -187500.02, -187500.02, -187500.02, -187500.02, -164826.16, -187500.02, -187500.02, 0.00, 0.00, 0.00, 10:32:38.094
90, 13983.56, -187500.02, -187500.02, -187500.02, -187500.02, -164930.72, -187500.02, -187500.02, 0.00, 0.00, 0.00, 10:32:38.097
91, 13786.76, -187500.02, -187500.02, -187500.02, -187500.02, -164948.66, -187500.02, -187500.02, 0.00, 0.00, 0.00, 10:32:38.102
92, 14041.05, -187500.02, -187500.02, -187500.02, -187500.02, -164917.73, -187500.02, -187500.02, 0.00, 0.00, 0.00, 10:32:38.106
93, 14184.71, -187500.02, -187500.02, -187500.02, -187500.02, -164869.72, -187500.02, -187500.02, 0.00, 0.00, 0.00, 10:32:38.110
94, 13955.56, -187500.02, -187500.02, -187500.02, -187500.02, -164935.06, -187500.02, -187500.02, 0.00, 0.00, 0.00, 10:32:38.113
95, 13716.57, -187500.02, -187500.02, -187500.02, -187500.02, -164959.25, -187500.02, -187500.02, 0.00, 0.00, 0.00, 10:32:38.118
96, 13908.62, -187500.02, -187500.02, -187500.02, -187500.02, -164901.73, -187500.02, -187500.02, 0.00, -0.19, 1.00, 10:32:38.122
97, 14141.81, -187500.02, -187500.02, -187500.02, -187500.02, -164841.52, -187500.02, -187500.02, 0.00, 0.00, 0.00, 10:32:38.126
98, 14010.01, -187500.02, -187500.02, -187500.02, -187500.02, -164896.80, -187500.02, -187500.02, 0.00, 0.00, 0.00, 10:32:38.131
99, 13730.52, -187500.02, -187500.02, -187500.02, -187500.02, -164951.94, -187500.02, -187500.02, 0.00, 0.00, 0.00, 10:32:38.135
100, 13857.68, -187500.02, -187500.02, -187500.02, -187500.02, -164929.22, -187500.02, -187500.02, 0.00, 0.00, 0.00, 10:32:38.138
101, 14127.33, -187500.02, -187500.02, -187500.02, -187500.02, -164885.22, -187500.02, -187500.02, 0.00, 0.00, 0.00, 10:32:38.142
102, 14018.97, -187500.02, -187500.02, -187500.02, -187500.02, -164906.05, -187500.02, -187500.02, 0.00, 0.00, 0.00, 10:32:38.145
103, 13668.65, -187500.02, -187500.02, -187500.02, -187500.02, -164910.42, -187500.02, -187500.02, 0.00, 0.00, 0.00, 10:32:38.150
104, 13758.59, -187500.02, -187500.02, -187500.02, -187500.02, -164892.55, -187500.02, -187500.02, 0.00, 0.00, 0.00, 10:32:38.154
105, 14109.87, -187500.02, -187500.02, -187500.02, -187500.02, -164889.39, -187500.02, -187500.02, -0.00, -0.19, 1.00, 10:32:38.158
106, 14115.26, -187500.02, -187500.02, -187500.02, -187500.02, -164941.52, -187500.02, -187500.02, 0.00, 0.00, 0.00, 10:32:38.162
107, 13801.06, -187500.02, -187500.02, -187500.02, -187500.02, -165017.05, -187500.02, -187500.02, 0.00, 0.00, 0.00, 10:32:38.166
108, 13718.07, -187500.02, -187500.02, -187500.02, -187500.02, -164977.44, -187500.02, -187500.02, 0.00, 0.00, 0.00, 10:32:38.170
109, 14046.24, -187500.02, -187500.02, -187500.02, -187500.02, -164943.95, -187500.02, -187500.02, 0.00, 0.00, 0.00, 10:32:38.173
110, 14093.53, -187500.02, -187500.02, -187500.02, -187500.02, -164949.98, -187500.02, -187500.02, 0.00, 0.00, 0.00, 10:32:38.178
111, 13780.21, -187500.02, -187500.02, -187500.02, -187500.02, -164976.98, -187500.02, -187500.02, 0.00, 0.00, 0.00, 10:32:38.182
112, 13668.14, -187500.02, -187500.02, -187500.02, -187500.02, -164988.14, -187500.02, -187500.02, 0.00, 0.00, 0.00, 10:32:38.187
113, 13935.15, -187500.02, -187500.02, -187500.02, -187500.02, -164938.84, -187500.02, -187500.02, 0.00, 0.00, 0.00, 10:32:38.191
114, 14121.99, -187500.02, -187500.02, -187500.02, -187500.02, -164923.03, -187500.02, -187500.02, 0.00, 0.00, 0.00, 10:32:38.194
115, 13965.03, -187500.02, -187500.02, -187500.02, -187500.02, -165079.05, -187500.02, -187500.02, 0.00, -0.19, 1.00, 10:32:38.198
116, 13780.70, -187500.02, -187500.02, -187500.02, -187500.02, -165135.94, -187500.02, -187500.02, 0.00, 0.00, 0.00, 10:32:38.202
117, 14013.83, -187500.02, -187500.02, -187500.02, -187500.02, -165110.25, -187500.02, -187500.02, 0.00, 0.00, 0.00, 10:32:38.206
118, 14159.38, -187500.02, -187500.02, -187500.02, -187500.02, -165059.52, -187500.02, -187500.02, 0.00, 0.00, 0.00, 10:32:38.210
119, 13947.94, -187500.02, -187500.02, -187500.02, -187500.02, -165125.09, -187500.02, -187500.02, 0.00, 0.00, 0.00, 10:32:38.214
120, 13662.77, -187500.02, -187500.02, -187500.02, -187500.02, -165132.20, -187500.02, -187500.02, 0.00, 0.00, 0.00, 10:32:38.218
121, 13833.85, -187500.02, -187500.02, -187500.02, -187500.02, -165040.72, -187500.02, -187500.02, 0.00, 0.00, 0.00, 10:32:38.222
122, 14147.98, -187500.02, -187500.02, -187500.02, -187500.02, -165044.06, -187500.02, -187500.02, 0.00, 0.00, 0.00, 10:32:38.226
123, 14009.87, -187500.02, -187500.02, -187500.02, -187500.02, -165114.56, -187500.02, -187500.02, 0.00, 0.00, 0.00, 10:32:38.230
124, 13700.90, -187500.02, -187500.02, -187500.02, -187500.02, -165152.03, -187500.02, -187500.02, 0.00, 0.00, 0.00, 10:32:38.233
125, 13825.87, -187500.02, -187500.02, -187500.02, -187500.02, -165121.22, -187500.02, -187500.02, 0.00, -0.19, 1.00, 10:32:38.237
126, 14084.55, -187500.02, -187500.02, -187500.02, -187500.02, -165069.80, -187500.02, -187500.02, 0.00, 0.00, 0.00, 10:32:38.242
127, 13954.64, -187500.02, -187500.02, -187500.02, -187500.02, -165050.22, -187500.02, -187500.02, 0.00, 0.00, 0.00, 10:32:38.246
128, 13659.89, -187500.02, -187500.02, -187500.02, -187500.02, -165107.02, -187500.02, -187500.02, 0.00, 0.00, 0.00, 10:32:38.248
129, 13733.89, -187500.02, -187500.02, -187500.02, -187500.02, -165137.77, -187500.02, -187500.02, 0.00, 0.00, 0.00, 10:32:38.254
130, 14045.30, -187500.02, -187500.02, -187500.02, -187500.02, -165096.73, -187500.02, -187500.02, 0.00, 0.00, 0.00, 10:32:38.258
131, 14073.15, -187500.02, -187500.02, -187500.02, -187500.02, -165110.25, -187500.02, -187500.02, 0.00, 0.00, 0.00, 10:32:38.262
132, 13769.63, -187500.02, -187500.02, -187500.02, -187500.02, -165182.50, -187500.02, -187500.02, 0.00, 0.00, 0.00, 10:32:38.266
133, 13723.10, -187500.02, -187500.02, -187500.02, -187500.02, -165188.13, -187500.02, -187500.02, 0.00, 0.00, 0.00, 10:32:38.269
134, 14004.46, -187500.02, -187500.02, -187500.02, -187500.02, -165136.41, -187500.02, -187500.02, 0.00, 0.00, 0.00, 10:32:38.274
135, 14098.90, -187500.02, -187500.02, -187500.02, -187500.02, -165134.58, -187500.02, -187500.02, -0.00, -0.19, 1.00, 10:32:38.277
136, 13815.12, -187500.02, -187500.02, -187500.02, -187500.02, -165202.44, -187500.02, -187500.02, 0.00, 0.00, 0.00, 10:32:38.282
137, 13716.39, -187500.02, -187500.02, -187500.02, -187500.02, -165247.05, -187500.02, -187500.02, 0.00, 0.00, 0.00, 10:32:38.286
138, 13939.20, -187500.02, -187500.02, -187500.02, -187500.02, -165164.23, -187500.02, -187500.02, 0.00, 0.00, 0.00, 10:32:38.289
139, 14143.80, -187500.02, -187500.02, -187500.02, -187500.02, -165176.13, -187500.02, -187500.02, 0.00, 0.00, 0.00, 10:32:38.294
140, 13912.75, -187500.02, -187500.02, -187500.02, -187500.02, -165263.78, -187500.02, -187500.02, 0.00, 0.00, 0.00, 10:32:38.298
141, 13722.79, -187500.02, -187500.02, -187500.02, -187500.02, -165304.48, -187500.02, -187500.02, 0.00, 0.00, 0.00, 10:32:38.302
142, 13907.79, -187500.02, -187500.02, -187500.02, -187500.02, -165235.28, -187500.02, -187500.02, 0.00, 0.00, 0.00, 10:32:38.305
143, 14115.15, -187500.02, -187500.02, -187500.02, -187500.02, -165210.39, -187500.02, -187500.02, 0.00, 0.00, 0.00, 10:32:38.308
144, 13924.17, -187500.02, -187500.02, -187500.02, -187500.02, -165279.92, -187500.02, -187500.02, 0.00, 0.00, 0.00, 10:32:38.313
145, 13654.32, -187500.02, -187500.02, -187500.02, -187500.02, -165310.34, -187500.02, -187500.02, 0.00, -0.19, 1.01, 10:32:38.318
146, 13816.04, -187500.02, -187500.02, -187500.02, -187500.02, -165244.42, -187500.02, -187500.02, 0.00, 0.00, 0.00, 10:32:38.322
147, 14124.76, -187500.02, -187500.02, -187500.02, -187500.02, -165249.23, -187500.02, -187500.02, 0.00, 0.00, 0.00, 10:32:38.325
148, 13973.37, -187500.02, -187500.02, -187500.02, -187500.02, -165266.22, -187500.02, -187500.02, 0.00, 0.00, 0.00, 10:32:38.328
149, 13678.78, -187500.02, -187500.02, -187500.02, -187500.02, -165322.92, -187500.02, -187500.02, 0.00, 0.00, 0.00, 10:32:38.333
150, 13783.72, -187500.02, -187500.02, -187500.02, -187500.02, -165309.39, -187500.02, -187500.02, 0.00, 0.00, 0.00, 10:32:38.337
151, 14058.55, -187500.02, -187500.02, -187500.02, -187500.02, -165253.02, -187500.02, -187500.02, 0.00, 0.00, 0.00, 10:32:38.342
152, 13977.84, -187500.02, -187500.02, -187500.02, -187500.02, -165257.75, -187500.02, -187500.02, 0.00, 0.00, 0.00, 10:32:38.346
153, 13658.21, -187500.02, -187500.02, -187500.02, -187500.02, -165294.70, -187500.02, -187500.02, 0.00, 0.00, 0.00, 10:32:38.350
154, 13712.33, -187500.02, -187500.02, -187500.02, -187500.02, -165313.31, -187500.02, -187500.02, -0.00, -0.19, 1.01, 10:32:38.353
155, 13987.83, -187500.02, -187500.02, -187500.02, -187500.02, -165247.64, -187500.02, -187500.02, 0.00, 0.00, 0.00, 10:32:38.357
156, 14100.53, -187500.02, -187500.02, -187500.02, -187500.02, -165309.20, -187500.02, -187500.02, 0.00, 0.00, 0.00, 10:32:38.361
157, 13807.86, -187500.02, -187500.02, -187500.02, -187500.02, -165398.17, -187500.02, -187500.02, 0.00, 0.00, 0.00, 10:32:38.365
158, 13715.48, -187500.02, -187500.02, -187500.02, -187500.02, -165394.19, -187500.02, -187500.02, 0.00, 0.00, 0.00, 10:32:38.370
159, 14020.94, -187500.02, -187500.02, -187500.02, -187500.02, -165359.11, -187500.02, -187500.02, 0.00, 0.00, 0.00, 10:32:38.374
160, 14120.54, -187500.02, -187500.02, -187500.02, -187500.02, -165385.48, -187500.02, -187500.02, 0.00, 0.00, 0.00, 10:32:38.378
161, 13770.71, -187500.02, -187500.02, -187500.02, -187500.02, -165407.86, -187500.02, -187500.02, 0.00, 0.00, 0.00, 10:32:38.381
162, 13617.69, -187500.02, -187500.02, -187500.02, -187500.02, -165403.34, -187500.02, -187500.02, 0.00, 0.00, 0.00, 10:32:38.385
163, 13881.46, -187500.02, -187500.02, -187500.02, -187500.02, -165331.64, -187500.02, -187500.02, 0.00, 0.00, 0.00, 10:32:38.389
164, 14124.67, -187500.02, -187500.02, -187500.02, -187500.02, -165361.63, -187500.02, -187500.02, -0.00, -0.19, 1.00, 10:32:38.392
165, 13917.38, -187500.02, -187500.02, -187500.02, -187500.02, -165469.88, -187500.02, -187500.02, 0.00, 0.00, 0.00, 10:32:38.398
166, 13666.42, -187500.02, -187500.02, -187500.02, -187500.02, -165487.33, -187500.02, -187500.02, 0.00, 0.00, 0.00, 10:32:38.401
167, 13846.59, -187500.02, -187500.02, -187500.02, -187500.02, -165408.22, -187500.02, -187500.02, 0.00, 0.00, 0.00, 10:32:38.407
168, 14084.26, -187500.02, -187500.02, -187500.02, -187500.02, -165378.06, -187500.02, -187500.02, 0.00, 0.00, 0.00, 10:32:38.409
169, 13906.20, -187500.02, -187500.02, -187500.02, -187500.02, -165443.41, -187500.02, -187500.02, 0.00, 0.00, 0.00, 10:32:38.413
170, 13635.19, -187500.02, -187500.02, -187500.02, -187500.02, -165485.45, -187500.02, -187500.02, 0.00, 0.00, 0.00, 10:32:38.417
171, 13802.18, -187500.02, -187500.02, -187500.02, -187500.02, -165462.27, -187500.02, -187500.02, 0.00, 0.00, 0.00, 10:32:38.421
172, 14073.95, -187500.02, -187500.02, -187500.02, -187500.02, -165421.28, -187500.02, -187500.02, 0.00, 0.00, 0.00, 10:32:38.425
173, 13987.34, -187500.02, -187500.02, -187500.02, -187500.02, -165476.19, -187500.02, -187500.02, 0.00, 0.00, 0.00, 10:32:38.430
174, 13659.91, -187500.02, -187500.02, -187500.02, -187500.02, -165519.44, -187500.02, -187500.02, 0.00, -0.19, 1.00, 10:32:38.434
175, 13758.86, -187500.02, -187500.02, -187500.02, -187500.02, -165508.42, -187500.02, -187500.02, 0.00, 0.00, 0.00, 10:32:38.437
176, 14056.86, -187500.02, -187500.02, -187500.02, -187500.02, -165485.69, -187500.02, -187500.02, 0.00, 0.00, 0.00, 10:32:38.441
177, 14015.30, -187500.02, -187500.02, -187500.02, -187500.02, -165494.72, -187500.02, -187500.02, 0.00, 0.00, 0.00, 10:32:38.445
178, 13719.57, -187500.02, -187500.02, -187500.02, -187500.02, -165570.47, -187500.02, -187500.02, 0.00, 0.00, 0.00, 10:32:38.449
179, 13680.59, -187500.02, -187500.02, -187500.02, -187500.02, -165543.70, -187500.02, -187500.02, 0.00, 0.00, 0.00, 10:32:38.453
180, 13980.14, -187500.02, -187500.02, -187500.02, -187500.02, -165483.50, -187500.02, -187500.02, 0.00, 0.00, 0.00, 10:32:38.458
181, 14129.39, -187500.02, -187500.02, -187500.02, -187500.02, -165559.92, -187500.02, -187500.02, 0.00, 0.00, 0.00, 10:32:38.461
182, 13819.61, -187500.02, -187500.02, -187500.02, -187500.02, -165643.77, -187500.02, -187500.02, 0.00, 0.00, 0.00, 10:32:38.465
183, 13731.73, -187500.02, -187500.02, -187500.02, -187500.02, -165664.59, -187500.02, -187500.02, 0.00, 0.00, 0.00, 10:32:38.469
184, 14026.81, -187500.02, -187500.02, -187500.02, -187500.02, -165646.11, -187500.02, -187500.02, 0.00, -0.19, 0.99, 10:32:38.473
185, 14131.53, -187500.02, -187500.02, -187500.02, -187500.02, -165641.98, -187500.02, -187500.02, 0.00, 0.00, 0.00, 10:32:38.477
186, 13799.70, -187500.02, -187500.02, -187500.02, -187500.02, -165657.00, -187500.02, -187500.02, 0.00, 0.00, 0.00, 10:32:38.481
187, 13623.21, -187500.02, -187500.02, -187500.02, -187500.02, -165639.14, -187500.02, -187500.02, 0.00, 0.00, 0.00, 10:32:38.486
188, 13877.68, -187500.02, -187500.02, -187500.02, -187500.02, -165600.66, -187500.02, -187500.02, 0.00, 0.00, 0.00, 10:32:38.489
189, 14074.29, -187500.02, -187500.02, -187500.02, -187500.02, -165568.11, -187500.02, -187500.02, 0.00, 0.00, 0.00, 10:32:38.497
190, 13884.86, -187500.02, -187500.02, -187500.02, -187500.02, -165650.78, -187500.02, -187500.02, 0.00, 0.00, 0.00, 10:32:38.497
191, 13629.83, -187500.02, -187500.02, -187500.02, -187500.02, -165683.91, -187500.02, -187500.02, 0.00, 0.00, 0.00, 10:32:38.501
192, 13816.04, -187500.02, -187500.02, -187500.02, -187500.02, -165623.50, -187500.02, -187500.02, 0.00, 0.00, 0.00, 10:32:38.505
193, 14088.04, -187500.02, -187500.02, -187500.02, -187500.02, -165617.14, -187500.02, -187500.02, 0.00, 0.00, 0.00, 10:32:38.509
194, 13914.32, -187500.02, -187500.02, -187500.02, -187500.02, -165675.50, -187500.02, -187500.02, -0.00, -0.19, 1.00, 10:32:38.514
195, 13642.23, -187500.02, -187500.02, -187500.02, -187500.02, -165736.13, -187500.02, -187500.02, 0.00, 0.00, 0.00, 10:32:38.517
196, 13731.88, -187500.02, -187500.02, -187500.02, -187500.02, -165665.47, -187500.02, -187500.02, 0.00, 0.00, 0.00, 10:32:38.521
197, 13988.53, -187500.02, -187500.02, -187500.02, -187500.02, -165582.41, -187500.02, -187500.02, 0.00, 0.00, 0.00, 10:32:38.525
198, 13973.93, -187500.02, -187500.02, -187500.02, -187500.02, -165664.80, -187500.02, -187500.02, 0.00, 0.00, 0.00, 10:32:38.529
199, 13673.21, -187500.02, -187500.02, -187500.02, -187500.02, -165734.84, -187500.02, -187500.02, 0.00, 0.00, 0.00, 10:32:38.533
200, 13731.26, -187500.02, -187500.02, -187500.02, -187500.02, -165731.00, -187500.02, -187500.02, 0.00, 0.00, 0.00, 10:32:38.537
201, 14029.09, -187500.02, -187500.02, -187500.02, -187500.02, -165695.58, -187500.02, -187500.02, 0.00, 0.00, 0.00, 10:32:38.543
202, 14018.12, -187500.02, -187500.02, -187500.02, -187500.02, -165725.11, -187500.02, -187500.02, 0.00, 0.00, 0.00, 10:32:38.545
203, 13653.41, -187500.02, -187500.02, -187500.02, -187500.02, -165757.67, -187500.02, -187500.02, -0.00, -0.19, 1.01, 10:32:38.549
204, 13580.25, -187500.02, -187500.02, -187500.02, -187500.02, -165680.11, -187500.02, -187500.02, 0.00, 0.00, 0.00, 10:32:38.553
205, 13990.87, -187500.02, -187500.02, -187500.02, -187500.02, -165686.08, -187500.02, -187500.02, 0.00, 0.00, 0.00, 10:32:38.557
206, 14115.28, -187500.02, -187500.02, -187500.02, -187500.02, -165748.27, -187500.02, -187500.02, 0.00, 0.00, 0.00, 10:32:38.561
207, 13808.06, -187500.02, -187500.02, -187500.02, -187500.02, -165847.48, -187500.02, -187500.02, 0.00, 0.00, 0.00, 10:32:38.565
208, 13675.27, -187500.02, -187500.02, -187500.02, -187500.02, -165846.94, -187500.02, -187500.02, 0.00, 0.00, 0.00, 10:32:38.569
209, 13926.99, -187500.02, -187500.02, -187500.02, -187500.02, -165771.81, -187500.02, -187500.02, 0.00, 0.00, 0.00, 10:32:38.572
210, 14101.13, -187500.02, -187500.02, -187500.02, -187500.02, -165800.61, -187500.02, -187500.02, 0.00, 0.00, 0.00, 10:32:38.577
211, 13782.71, -187500.02, -187500.02, -187500.02, -187500.02, -165833.42, -187500.02, -187500.02, 0.00, 0.00, 0.00, 10:32:38.581
212, 13592.03, -187500.02, -187500.02, -187500.02, -187500.02, -165831.67, -187500.02, -187500.02, 0.00, 0.00, 0.00, 10:32:38.585
213, 13869.84, -187500.02, -187500.02, -187500.02, -187500.02, -165801.19, -187500.02, -187500.02, -0.00, -0.19, 1.01, 10:32:38.589
214, 14128.83, -187500.02, -187500.02, -187500.02, -187500.02, -165827.44, -187500.02, -187500.02, 0.00, 0.00, 0.00, 10:32:38.594
215, 13867.27, -187500.02, -187500.02, -187500.02, -187500.02, -165869.52, -187500.02, -187500.02, 0.00, 0.00, 0.00, 10:32:38.597
216, 13632.87, -187500.02, -187500.02, -187500.02, -187500.02, -165921.80, -187500.02, -187500.02, 0.00, 0.00, 0.00, 10:32:38.601
217, 13774.58, -187500.02, -187500.02, -187500.02, -187500.02, -165855.22, -187500.02, -187500.02, 0.00, 0.00, 0.00, 10:32:38.606
218, 14062.89, -187500.02, -187500.02, -187500.02, -187500.02, -165842.73, -187500.02, -187500.02, 0.00, 0.00, 0.00, 10:32:38.610
219, 13876.23, -187500.02, -187500.02, -187500.02, -187500.02, -165852.75, -187500.02, -187500.02, 0.00, 0.00, 0.00, 10:32:38.613
220, 13600.99, -187500.02, -187500.02, -187500.02, -187500.02, -165900.81, -187500.02, -187500.02, 0.00, 0.00, 0.00, 10:32:38.618
221, 13719.21, -187500.02, -187500.02, -187500.02, -187500.02, -165870.13, -187500.02, -187500.02, 0.00, 0.00, 0.00, 10:32:38.621
222, 14063.14, -187500.02, -187500.02, -187500.02, -187500.02, -165860.36, -187500.02, -187500.02, 0.00, 0.00, 0.00, 10:32:38.625
223, 14007.93, -187500.02, -187500.02, -187500.02, -187500.02, -165933.67, -187500.02, -187500.02, -0.00, -0.19, 1.00, 10:32:38.628
224, 13664.98, -187500.02, -187500.02, -187500.02, -187500.02, -165970.91, -187500.02, -187500.02, 0.00, 0.00, 0.00, 10:32:38.632
225, 13692.12, -187500.02, -187500.02, -187500.02, -187500.02, -165954.25, -187500.02, -187500.02, 0.00, 0.00, 0.00, 10:32:38.637
226, 13985.80, -187500.02, -187500.02, -187500.02, -187500.02, -165892.00, -187500.02, -187500.02, 0.00, 0.00, 0.00, 10:32:38.641
227, 13998.92, -187500.02, -187500.02, -187500.02, -187500.02, -165912.09, -187500.02, -187500.02, 0.00, 0.00, 0.00, 10:32:38.646
228, 13671.29, -187500.02, -187500.02, -187500.02, -187500.02, -165967.42, -187500.02, -187500.02, 0.00, 0.00, 0.00, 10:32:38.649
229, 13609.06, -187500.02, -187500.02, -187500.02, -187500.02, -165944.84, -187500.02, -187500.02, 0.00, 0.00, 0.00, 10:32:38.653
230, 13946.33, -187500.02, -187500.02, -187500.02, -187500.02, -165905.53, -187500.02, -187500.02, 0.00, 0.00, 0.00, 10:32:38.656
231, 14042.46, -187500.02, -187500.02, -187500.02, -187500.02, -165904.41, -187500.02, -187500.02, 0.00, 0.00, 0.00, 10:32:38.661
232, 13778.13, -187500.02, -187500.02, -187500.02, -187500.02, -165971.95, -187500.02, -187500.02, 0.00, 0.00, 0.00, 10:32:38.665
233, 13710.47, -187500.02, -187500.02, -187500.02, -187500.02, -166039.50, -187500.02, -187500.02, -0.00, -0.20, 1.01, 10:32:38.669
234, 13968.41, -187500.02, -187500.02, -187500.02, -187500.02, -166014.83, -187500.02, -187500.02, 0.00, 0.00, 0.00, 10:32:38.673
235, 14074.07, -187500.02, -187500.02, -187500.02, -187500.02, -165970.69, -187500.02, -187500.02, 0.00, 0.00, 0.00, 10:32:38.677
236, 13823.79, -187500.02, -187500.02, -187500.02, -187500.02, -166026.45, -187500.02, -187500.02, 0.00, 0.00, 0.00, 10:32:38.681
237, 13624.97, -187500.02, -187500.02, -187500.02, -187500.02, -166055.94, -187500.02, -187500.02, 0.00, 0.00, 0.00, 10:32:38.684
238, 13855.91, -187500.02, -187500.02, -187500.02, -187500.02, -166014.94, -187500.02, -187500.02, 0.00, 0.00, 0.00, 10:32:38.689
239, 14084.26, -187500.02, -187500.02, -187500.02, -187500.02, -166014.92, -187500.02, -187500.02, 0.00, 0.00, 0.00, 10:32:38.692
240, 13890.25, -187500.02, -187500.02, -187500.02, -187500.02, -166075.80, -187500.02, -187500.02, 0.00, 0.00, 0.00, 10:32:38.696
241, 13638.94, -187500.02, -187500.02, -187500.02, -187500.02, -166141.38, -187500.02, -187500.02, 0.00, 0.00, 0.00, 10:32:38.700
242, 13753.81, -187500.02, -187500.02, -187500.02, -187500.02, -166081.41, -187500.02, -187500.02, -0.00, -0.19, 1.00, 10:32:38.706
243, 14054.55, -187500.02, -187500.02, -187500.02, -187500.02, -166072.77, -187500.02, -187500.02, 0.00, 0.00, 0.00, 10:32:38.710
244, 13871.94, -187500.02, -187500.02, -187500.02, -187500.02, -166084.28, -187500.02, -187500.02, 0.00, 0.00, 0.00, 10:32:38.714
245, 13562.99, -187500.02, -187500.02, -187500.02, -187500.02, -166110.73, -187500.02, -187500.02, 0.00, 0.00, 0.00, 10:32:38.717
246, 13645.58, -187500.02, -187500.02, -187500.02, -187500.02, -166060.63, -187500.02, -187500.02, 0.00, 0.00, 0.00, 10:32:38.721
247, 13992.73, -187500.02, -187500.02, -187500.02, -187500.02, -166045.78, -187500.02, -187500.02, 0.00, 0.00, 0.00, 10:32:38.724
248, 13967.07, -187500.02, -187500.02, -187500.02, -187500.02, -166092.25, -187500.02, -187500.02, 0.00, 0.00, 0.00, 10:32:38.728
249, 13646.70, -187500.02, -187500.02, -187500.02, -187500.02, -166147.91, -187500.02, -187500.02, 0.00, 0.00, 0.00, 10:32:38.733
250, 13627.03, -187500.02, -187500.02, -187500.02, -187500.02, -166093.58, -187500.02, -187500.02, 0.00, 0.00, 0.00, 10:32:38.738
251, 13928.11, -187500.02, -187500.02, -187500.02, -187500.02, -166039.73, -187500.02, -187500.02, 0.00, 0.00, 0.00, 10:32:38.741
252, 13956.61, -187500.02, -187500.02, -187500.02, -187500.02, -166040.02, -187500.02, -187500.02, 0.00, -0.19, 1.00, 10:32:38.746
253, 13687.43, -187500.02, -187500.02, -187500.02, -187500.02, -166131.13, -187500.02, -187500.02, 0.00, 0.00, 0.00, 10:32:38.748
254, 13644.24, -187500.02, -187500.02, -187500.02, -187500.02, -166174.27, -187500.02, -187500.02, 0.00, 0.00, 0.00, 10:32:38.752
255, 13924.98, -187500.02, -187500.02, -187500.02, -187500.02, -166119.25, -187500.02, -187500.02, 0.00, 0.00, 0.00, 10:32:38.756
0, 14077.91, -187500.02, -187500.02, -187500.02, -187500.02, -166144.33, -187500.02, -187500.02, 0.00, 0.00, 0.00, 10:32:38.761
1, 13772.56, -187500.02, -187500.02, -187500.02, -187500.02, -166187.67, -187500.02, -187500.02, 0.00, 0.00, 0.00, 10:32:38.766
2, 13611.36, -187500.02, -187500.02, -187500.02, -187500.02, -166201.39, -187500.02, -187500.02, 0.00, 0.00, 0.00, 10:32:38.769
3, 13855.11, -187500.02, -187500.02, -187500.02, -187500.02, -166157.72, -187500.02, -187500.02, 0.00, 0.00, 0.00, 10:32:38.772
4, 14029.65, -187500.02, -187500.02, -187500.02, -187500.02, -166141.45, -187500.02, -187500.02, 0.00, 0.00, 0.00, 10:32:38.777
5, 13768.90, -187500.02, -187500.02, -187500.02, -187500.02, -166182.05, -187500.02, -187500.02, 0.00, 0.00, 0.00, 10:32:38.780
6, 13566.59, -187500.02, -187500.02, -187500.02, -187500.02, -166202.30, -187500.02, -187500.02, 0.00, -0.19, 1.00, 10:32:38.784
7, 13827.41, -187500.02, -187500.02, -187500.02, -187500.02, -166196.86, -187500.02, -187500.02, 0.00, 0.00, 0.00, 10:32:38.789
8, 14023.17, -187500.02, -187500.02, -187500.02, -187500.02, -166143.78, -187500.02, -187500.02, 0.00, 0.00, 0.00, 10:32:38.794
9, 13879.27, -187500.02, -187500.02, -187500.02, -187500.02, -166228.05, -187500.02, -187500.02, 0.00, 0.00, 0.00, 10:32:38.798
10, 13582.06, -187500.02, -187500.02, -187500.02, -187500.02, -166261.45, -187500.02, -187500.02, 0.00, 0.00, 0.00, 10:32:38.800
11, 13703.05, -187500.02, -187500.02, -187500.02, -187500.02, -166201.06, -187500.02, -187500.02, 0.00, 0.00, 0.00, 10:32:38.804
12, 14007.23, -187500.02, -187500.02, -187500.02, -187500.02, -166198.36, -187500.02, -187500.02, 0.00, 0.00, 0.00, 10:32:38.809
13, 13878.00, -187500.02, -187500.02, -187500.02, -187500.02, -166232.47, -187500.02, -187500.02, 0.00, 0.00, 0.00, 10:32:38.813
14, 13572.16, -187500.02, -187500.02, -187500.02, -187500.02, -166245.92, -187500.02, -187500.02, 0.00, 0.00, 0.00, 10:32:38.817
15, 13715.39, -187500.02, -187500.02, -187500.02, -187500.02, -166269.48, -187500.02, -187500.02, 0.00, 0.00, 0.00, 10:32:38.820
16, 13984.91, -187500.02, -187500.02, -187500.02, -187500.02, -166239.22, -187500.02, -187500.02, 0.00, -0.19, 1.00, 10:32:38.825
17, 13931.77, -187500.02, -187500.02, -187500.02, -187500.02, -166229.58, -187500.02, -187500.02, 0.00, 0.00, 0.00, 10:32:38.828
18, 13627.37, -187500.02, -187500.02, -187500.02, -187500.02, -166290.11, -187500.02, -187500.02, 0.00, 0.00, 0.00, 10:32:38.833
19, 13578.95, -187500.02, -187500.02, -187500.02, -187500.02, -166247.00, -187500.02, -187500.02, 0.00, 0.00, 0.00, 10:32:38.837
20, 13898.07, -187500.02, -187500.02, -187500.02, -187500.02, -166202.16, -187500.02, -187500.02, 0.00, 0.00, 0.00, 10:32:38.841
21, 13996.84, -187500.02, -187500.02, -187500.02, -187500.02, -166227.75, -187500.02, -187500.02, 0.00, 0.00, 0.00, 10:32:38.845
22, 13741.70, -187500.02, -187500.02, -187500.02, -187500.02, -166336.36, -187500.02, -187500.02, 0.00, 0.00, 0.00, 10:32:38.848
23, 13656.67, -187500.02, -187500.02, -187500.02, -187500.02, -166364.41, -187500.02, -187500.02, 0.00, 0.00, 0.00, 10:32:38.853
24, 13933.07, -187500.02, -187500.02, -187500.02, -187500.02, -166337.56, -187500.02, -187500.02, 0.00, 0.00, 0.00, 10:32:38.857
25, 14021.96, -187500.02, -187500.02, -187500.02, -187500.02, -166296.89, -187500.02, -187500.02, 0.00, 0.00, 0.00, 10:32:38.861
26, 13735.68, -187500.02, -187500.02, -187500.02, -187500.02, -166344.66, -187500.02, -187500.02, 0.00, -0.19, 1.00, 10:32:38.865
27, 13547.28, -187500.02, -187500.02, -187500.02, -187500.02, -166345.52, -187500.02, -187500.02, 0.00, 0.00, 0.00, 10:32:38.868
28, 13827.37, -187500.02, -187500.02, -187500.02, -187500.02, -166334.64, -187500.02, -187500.02, 0.00, 0.00, 0.00, 10:32:38.872
29, 14042.08, -187500.02, -187500.02, -187500.02, -187500.02, -166324.88, -187500.02, -187500.02, 0.00, 0.00, 0.00, 10:32:38.878
30, 13831.66, -187500.02, -187500.02, -187500.02, -187500.02, -166391.95, -187500.02, -187500.02, 0.00, 0.00, 0.00, 10:32:38.881
31, 13585.28, -187500.02, -187500.02, -187500.02, -187500.02, -166427.42, -187500.02, -187500.02, 0.00, 0.00, 0.00, 10:32:38.884
32, 13776.52, -187500.02, -187500.02, -187500.02, -187500.02, -166384.44, -187500.02, -187500.02, 0.00, 0.00, 0.00, 10:32:38.888
33, 14014.41, -187500.02, -187500.02, -187500.02, -187500.02, -166340.73, -187500.02, -187500.02, 0.00, 0.00, 0.00, 10:32:38.892
34, 13842.52, -187500.02, -187500.02, -187500.02, -187500.02, -166394.19, -187500.02, -187500.02, 0.00, 0.00, 0.00, 10:32:38.897
35, 13559.28, -187500.02, -187500.02, -187500.02, -187500.02, -166428.22, -187500.02, -187500.02, 0.00, 0.00, 0.00, 10:32:38.901
36, 13683.74, -187500.02, -187500.02, -187500.02, -187500.02, -166407.53, -187500.02, -187500.02, 0.00, -0.19, 1.00, 10:32:38.906
37, 13991.14, -187500.02, -187500.02, -187500.02, -187500.02, -166383.61, -187500.02, -187500.02, 0.00, 0.00, 0.00, 10:32:38.909
38, 13946.50, -187500.02, -187500.02, -187500.02, -187500.02, -166454.67, -187500.02, -187500.02, 0.00, 0.00, 0.00, 10:32:38.911
39, 13587.54, -187500.02, -187500.02, -187500.02, -187500.02, -166477.89, -187500.02, -187500.02, 0.00, 0.00, 0.00, 10:32:38.916
40, 13617.20, -187500.02, -187500.02, -187500.02, -187500.02, -166440.61, -187500.02, -187500.02, 0.00, 0.00, 0.00, 10:32:38.921
41, 13902.14, -187500.02, -187500.02, -187500.02, -187500.02, -166380.56, -187500.02, -187500.02, 0.00, 0.00, 0.00, 10:32:38.925
42, 13890.49, -187500.02, -187500.02, -187500.02, -187500.02, -166366.28, -187500.02, -187500.02, 0.00, 0.00, 0.00, 10:32:38.929
43, 13684.25, -187500.02, -187500.02, -187500.02, -187500.02, -166491.61, -187500.02, -187500.02, 0.00, 0.00, 0.00, 10:32:38.934
44, 13658.84, -187500.02, -187500.02, -187500.02, -187500.02, -166535.00, -187500.02, -187500.02, 0.00, 0.00, 0.00, 10:32:38.936
45, 13921.52, -187500.02, -187500.02, -187500.02, -187500.02, -166476.59, -187500.02, -187500.02, 0.00, -0.19, 1.00, 10:32:38.941
46, 13958.24, -187500.02, -187500.02, -187500.02, -187500.02, -166449.13, -187500.02, -187500.02, 0.00, 0.00, 0.00, 10:32:38.945
47, 13651.46, -187500.02, -187500.02, -187500.02, -187500.02, -166493.88, -187500.02, -187500.02, 0.00, 0.00, 0.00, 10:32:38.949
48, 13532.89, -187500.02, -187500.02, -187500.02, -187500.02, -166493.31, -187500.02, -187500.02, 0.00, 0.00, 0.00, 10:32:38.954
49, 13845.47, -187500.02, -187500.02, -187500.02, -187500.02, -166476.17, -187500.02, -187500.02, 0.00, 0.00, 0.00, 10:32:38.957
50, 13967.25, -187500.02, -187500.02, -187500.02, -187500.02, -166447.06, -187500.02, -187500.02, 0.00, 0.00, 0.00, 10:32:38.961
51, 13745.25, -187500.02, -187500.02, -187500.02, -187500.02, -166523.84, -187500.02, -187500.02, 0.00, 0.00, 0.00, 10:32:38.965
52, 13554.97, -187500.02, -187500.02, -187500.02, -187500.02, -166543.88, -187500.02, -187500.02, 0.00, 0.00, 0.00, 10:32:38.967
53, 13799.54, -187500.02, -187500.02, -187500.02, -187500.02, -166513.38, -187500.02, -187500.02, 0.00, 0.00, 0.00, 10:32:38.972
54, 14005.83, -187500.02, -187500.02, -187500.02, -187500.02, -166507.86, -187500.02, -187500.02, 0.00, 0.00, 0.00, 10:32:38.976
55, 13756.47, -187500.02, -187500.02, -187500.02, -187500.02, -166550.63, -187500.02, -187500.02, -0.00, -0.19, 1.00, 10:32:38.981
56, 13491.00, -187500.02, -187500.02, -187500.02, -187500.02, -166556.64, -187500.02, -187500.02, 0.00, 0.00, 0.00, 10:32:38.985
57, 13704.37, -187500.02, -187500.02, -187500.02, -187500.02, -166534.22, -187500.02, -187500.02, 0.00, 0.00, 0.00, 10:32:38.987
58, 13988.48, -187500.02, -187500.02, -187500.02, -187500.02, -166534.61, -187500.02, -187500.02, 0.00, 0.00, 0.00, 10:32:38.991
59, 13833.63, -187500.02, -187500.02, -187500.02, -187500.02, -166550.59, -187500.02, -187500.02, 0.00, 0.00, 0.00, 10:32:38.996
60, 13552.89, -187500.02, -187500.02, -187500.02, -187500.02, -166598.45, -187500.02, -187500.02, 0.00, 0.00, 0.00, 10:32:39.000
61, 13682.64, -187500.02, -187500.02, -187500.02, -187500.02, -166603.66, -187500.02, -187500.02, 0.00, 0.00, 0.00, 10:32:39.005
62, 13965.95, -187500.02, -187500.02, -187500.02, -187500.02, -166562.72, -187500.02, -187500.02, 0.00, 0.00, 0.00, 10:32:39.009
63, 13899.50, -187500.02, -187500.02, -187500.02, -187500.02, -166597.31, -187500.02, -187500.02, 0.00, 0.00, 0.00, 10:32:39.013
64, 13622.87, -187500.02, -187500.02, -187500.02, -187500.02, -166687.95, -187500.02, -187500.02, 0.00, 0.00, 0.00, 10:32:39.016
65, 13615.32, -187500.02, -187500.02, -187500.02, -187500.02, -166647.61, -187500.02, -187500.02, 0.00, -0.19, 1.00, 10:32:39.019
66, 13945.61, -187500.02, -187500.02, -187500.02, -187500.02, -166601.09, -187500.02, -187500.02, 0.00, 0.00, 0.00, 10:32:39.026
67, 14025.54, -187500.02, -187500.02, -187500.02, -187500.02, -166684.13, -187500.02, -187500.02, 0.00, 0.00, 0.00, 10:32:39.029
68, 13665.77, -187500.02, -187500.02, -187500.02, -187500.02, -166746.33, -187500.02, -187500.02, 0.00, 0.00, 0.00, 10:32:39.033
69, 13591.07, -187500.02, -187500.02, -187500.02, -187500.02, -166729.41, -187500.02, -187500.02, 0.00, 0.00, 0.00, 10:32:39.037
70, 13891.81, -187500.02, -187500.02, -187500.02, -187500.02, -166687.84, -187500.02, -187500.02, 0.00, 0.00, 0.00, 10:32:39.041
71, 13973.04, -187500.02, -187500.02, -187500.02, -187500.02, -166680.16, -187500.02, -187500.02, 0.00, 0.00, 0.00, 10:32:39.044
72, 13650.97, -187500.02, -187500.02, -187500.02, -187500.02, -166726.50, -187500.02, -187500.02, 0.00, 0.00, 0.00, 10:32:39.047
73, 13531.50, -187500.02, -187500.02, -187500.02, -187500.02, -166732.09, -187500.02, -187500.02, 0.00, 0.00, 0.00, 10:32:39.052
74, 13867.94, -187500.02, -187500.02, -187500.02, -187500.02, -166743.66, -187500.02, -187500.02, 0.00, 0.00, 0.00, 10:32:39.056
75, 14042.59, -187500.02, -187500.02, -187500.02, -187500.02, -166779.19, -187500.02, -187500.02, -0.00, -0.19, 1.00, 10:32:39.060
76, 13732.00, -187500.02, -187500.02, -187500.02, -187500.02, -166794.67, -187500.02, -187500.02, 0.00, 0.00, 0.00, 10:32:39.065
77, 13484.61, -187500.02, -187500.02, -187500.02, -187500.02, -166767.28, -187500.02, -187500.02, 0.00, 0.00, 0.00, 10:32:39.069
78, 13739.48, -187500.02, -187500.02, -187500.02, -187500.02, -166725.03, -187500.02, -187500.02, 0.00, 0.00, 0.00, 10:32:39.071
79, 13955.45, -187500.02, -187500.02, -187500.02, -187500.02, -166708.30, -187500.02, -187500.02, 0.00, 0.00, 0.00, 10:32:39.076
80, 13749.18, -187500.02, -187500.02, -187500.02, -187500.02, -166755.20, -187500.02, -187500.02, 0.00, 0.00, 0.00, 10:32:39.079
81, 13481.32, -187500.02, -187500.02, -187500.02, -187500.02, -166807.84, -187500.02, -187500.02, 0.00, 0.00, 0.00, 10:32:39.084
82, 13645.56, -187500.02, -187500.02, -187500.02, -187500.02, -166733.75, -187500.02, -187500.02, 0.00, 0.00, 0.00, 10:32:39.089
83, 13977.82, -187500.02, -187500.02, -187500.02, -187500.02, -166736.75, -187500.02, -187500.02, 0.00, 0.00, 0.00, 10:32:39.093
84, 13889.91, -187500.02, -187500.02, -187500.02, -187500.02, -166821.28, -187500.02, -187500.02, 0.00, 0.00, 0.00, 10:32:39.096
85, 13591.94, -187500.02, -187500.02, -187500.02, -187500.02, -166877.14, -187500.02, -187500.02, 0.00, -0.20, 1.00, 10:32:39.100
86, 13688.16, -187500.02, -187500.02, -187500.02, -187500.02, -166868.70, -187500.02, -187500.02, 0.00, 0.00, 0.00, 10:32:39.104
87, 13951.69, -187500.02, -187500.02, -187500.02, -187500.02, -166814.11, -187500.02, -187500.02, 0.00, 0.00, 0.00, 10:32:39.107
88, 13864.72, -187500.02, -187500.02, -187500.02, -187500.02, -166786.44, -187500.02, -187500.02, 0.00, 0.00, 0.00, 10:32:39.112
89, 13536.51, -187500.02, -187500.02, -187500.02, -187500.02, -166851.45, -187500.02, -187500.02, 0.00, 0.00, 0.00, 10:32:39.116
90, 13565.70, -187500.02, -187500.02, -187500.02, -187500.02, -166861.31, -187500.02, -187500.02, 0.00, 0.00, 0.00, 10:32:39.120
91, 13908.17, -187500.02, -187500.02, -187500.02, -187500.02, -166827.47, -187500.02, -187500.02, 0.00, 0.00, 0.00, 10:32:39.124
92, 13953.61, -187500.02, -187500.02, -187500.02, -187500.02, -166858.58, -187500.02, -187500.02, 0.00, 0.00, 0.00, 10:32:39.128
93, 13627.57, -187500.02, -187500.02, -187500.02, -187500.02, -166932.91, -187500.02, -187500.02, 0.00, 0.00, 0.00, 10:32:39.132
94, 13554.77, -187500.02, -187500.02, -187500.02, -187500.02, -166933.06, -187500.02, -187500.02, 0.00, -0.19, 1.00, 10:32:39.135
95, 13843.75, -187500.02, -187500.02, -187500.02, -187500.02, -166897.52, -187500.02, -187500.02, 0.00, 0.00, 0.00, 10:32:39.140
96, 13955.58, -187500.02, -187500.02, -187500.02, -187500.02, -166909.14, -187500.02, -187500.02, 0.00, 0.00, 0.00, 10:32:39.144
97, 13657.63, -187500.02, -187500.02, -187500.02, -187500.02, -166974.81, -187500.02, -187500.02, 0.00, 0.00, 0.00, 10:32:39.149
98, 13509.48, -187500.02, -187500.02, -187500.02, -187500.02, -167003.25, -187500.02, -187500.02, 0.00, 0.00, 0.00, 10:32:39.151
99, 13763.44, -187500.02, -187500.02, -187500.02, -187500.02, -166964.08, -187500.02, -187500.02, 0.00, 0.00, 0.00, 10:32:39.155
100, 13928.02, -187500.02, -187500.02, -187500.02, -187500.02, -166907.06, -187500.02, -187500.02, 0.00, 0.00, 0.00, 10:32:39.159
101, 13716.19, -187500.02, -187500.02, -187500.02, -187500.02, -166978.52, -187500.02, -187500.02, 0.00, 0.00, 0.00, 10:32:39.164
102, 13502.55, -187500.02, -187500.02, -187500.02, -187500.02, -167020.75, -187500.02, -187500.02, 0.00, 0.00, 0.00, 10:32:39.168
103, 13721.53, -187500.02, -187500.02, -187500.02, -187500.02, -166999.20, -187500.02, -187500.02, 0.00, 0.00, 0.00, 10:32:39.171
104, 13939.33, -187500.02, -187500.02, -187500.02, -187500.02, -166978.83, -187500.02, -187500.02, 0.00, -0.19, 1.01, 10:32:39.177
105, 13765.63, -187500.02, -187500.02, -187500.02, -187500.02, -167017.95, -187500.02, -187500.02, 0.00, 0.00, 0.00, 10:32:39.180
106, 13512.75, -187500.02, -187500.02, -187500.02, -187500.02, -167069.72, -187500.02, -187500.02, 0.00, 0.00, 0.00, 10:32:39.185
107, 13686.04, -187500.02, -187500.02, -187500.02, -187500.02, -167033.39, -187500.02, -187500.02, 0.00, 0.00, 0.00, 10:32:39.188
108, 13964.90, -187500.02, -187500.02, -187500.02, -187500.02, -167006.16, -187500.02, -187500.02, 0.00, 0.00, 0.00, 10:32:39.194
109, 13870.24, -187500.02, -187500.02, -187500.02, -187500.02, -167072.47, -187500.02, -187500.02, 0.00, 0.00, 0.00, 10:32:39.197
110, 13564.51, -187500.02, -187500.02, -187500.02, -187500.02, -167136.39, -187500.02, -187500.02, 0.00, 0.00, 0.00, 10:32:39.200
111, 13613.96, -187500.02, -187500.02, -187500.02, -187500.02, -167097.67, -187500.02, -187500.02, 0.00, 0.00, 0.00, 10:32:39.213
112, 13917.92, -187500.02, -187500.02, -187500.02, -187500.02, -167068.05, -187500.02, -187500.02, 0.00, 0.00, 0.00, 10:32:39.213
113, 13876.05, -187500.02, -187500.02, -187500.02, -187500.02, -167077.73, -187500.02, -187500.02, 0.00, 0.00, 0.00, 10:32:39.214
114, 13587.02, -187500.02, -187500.02, -187500.02, -187500.02, -167170.19, -187500.02, -187500.02, 0.00, -0.18, 1.00, 10:32:39.216
115, 13538.85, -187500.02, -187500.02, -187500.02, -187500.02, -167144.58, -187500.02, -187500.02, 0.00, 0.00, 0.00, 10:32:39.220
116, 13834.79, -187500.02, -187500.02, -187500.02, -187500.02, -167069.38, -187500.02, -187500.02, 0.00, 0.00, 0.00, 10:32:39.224
117, 13969.46, -187500.02, -187500.02, -187500.02, -187500.02, -167149.42, -187500.02, -187500.02, 0.00, 0.00, 0.00, 10:32:39.227
118, 13636.53, -187500.02, -187500.02, -187500.02, -187500.02, -167205.11, -187500.02, -187500.02, 0.00, 0.00, 0.00, 10:32:39.232
119, 13505.44, -187500.02, -187500.02, -187500.02, -187500.02, -167203.14, -187500.02, -187500.02, 0.00, 0.00, 0.00, 10:32:39.235
120, 13746.84, -187500.02, -187500.02, -187500.02, -187500.02, -167112.72, -187500.02, -187500.02, 0.00, 0.00, 0.00, 10:32:39.239
121, 13913.65, -187500.02, -187500.02, -187500.02, -187500.02, -167133.20, -187500.02, -187500.02, 0.00, 0.00, 0.00, 10:32:39.244
122, 13610.07, -187500.02, -187500.02, -187500.02, -187500.02, -167166.50, -187500.02, -187500.02, 0.00, 0.00, 0.00, 10:32:39.248
123, 13493.52, -187500.02, -187500.02, -187500.02, -187500.02, -167201.69, -187500.02, -187500.02, 0.00, 0.00, 0.00, 10:32:39.252
124, 13760.85, -187500.02, -187500.02, -187500.02, -187500.02, -167197.69, -187500.02, -187500.02, 0.00, -0.19, 1.00, 10:32:39.256
125, 13877.55, -187500.02, -187500.02, -187500.02, -187500.02, -167123.16, -187500.02, -187500.02, 0.00, 0.00, 0.00, 10:32:39.260
126, 13670.50, -187500.02, -187500.02, -187500.02, -187500.02, -167183.23, -187500.02, -187500.02, 0.00, 0.00, 0.00, 10:32:39.263
127, 13441.24, -187500.02, -187500.02, -187500.02, -187500.02, -167210.44, -187500.02, -187500.02, 0.00, 0.00, 0.00, 10:32:39.268
128, 13633.29, -187500.02, -187500.02, -187500.02, -187500.02, -167173.30, -187500.02, -187500.02, 0.00, 0.00, 0.00, 10:32:39.272
129, 13899.95, -187500.02, -187500.02, -187500.02, -187500.02, -167133.55, -187500.02, -187500.02, 0.00, 0.00, 0.00, 10:32:39.276
130, 13810.76, -187500.02, -187500.02, -187500.02, -187500.02, -167228.39, -187500.02, -187500.02, 0.00, 0.00, 0.00, 10:32:39.282
131, 13546.41, -187500.02, -187500.02, -187500.02, -187500.02, -167305.47, -187500.02, -187500.02, 0.00, 0.00, 0.00, 10:32:39.285
132, 13661.12, -187500.02, -187500.02, -187500.02, -187500.02, -167295.63, -187500.02, -187500.02, 0.00, 0.00, 0.00, 10:32:39.288
133, 13923.24, -187500.02, -187500.02, -187500.02, -187500.02, -167257.25, -187500.02, -187500.02, 0.00, 0.00, 0.00, 10:32:39.291
134, 13816.62, -187500.02, -187500.02, -187500.02, -187500.02, -167273.72, -187500.02, -187500.02, 0.00, -0.20, 1.00, 10:32:39.295
135, 13482.44, -187500.02, -187500.02, -187500.02, -187500.02, -167303.30, -187500.02, -187500.02, 0.00, 0.00, 0.00, 10:32:39.300
136, 13525.35, -187500.02, -187500.02, -187500.02, -187500.02, -167268.92, -187500.02, -187500.02, 0.00, 0.00, 0.00, 10:32:39.305
137, 13844.25, -187500.02, -187500.02, -187500.02, -187500.02, -167240.78, -187500.02, -187500.02, 0.00, 0.00, 0.00, 10:32:39.308
138, 13822.43, -187500.02, -187500.02, -187500.02, -187500.02, -167226.89, -187500.02, -187500.02, 0.00, 0.00, 0.00, 10:32:39.312
139, 13561.12, -187500.02, -187500.02, -187500.02, -187500.02, -167325.28, -187500.02, -187500.02, 0.00, 0.00, 0.00, 10:32:39.316
140, 13532.62, -187500.02, -187500.02, -187500.02, -187500.02, -167341.27, -187500.02, -187500.02, 0.00, 0.00, 0.00, 10:32:39.319
141, 13833.02, -187500.02, -187500.02, -187500.02, -187500.02, -167304.14, -187500.02, -187500.02, 0.00, 0.00, 0.00, 10:32:39.323
142, 13887.27, -187500.02, -187500.02, -187500.02, -187500.02, -167319.61, -187500.02, -187500.02, 0.00, 0.00, 0.00, 10:32:39.328
143, 13541.45, -187500.02, -187500.02, -187500.02, -187500.02, -167348.41, -187500.02, -187500.02, 0.00, -0.19, 1.00, 10:32:39.332
144, 13445.27, -187500.02, -187500.02, -187500.02, -187500.02, -167351.39, -187500.02, -187500.02, 0.00, 0.00, 0.00, 10:32:39.336
145, 13737.58, -187500.02, -187500.02, -187500.02, -187500.02, -167300.92, -187500.02, -187500.02, 0.00, 0.00, 0.00, 10:32:39.340
146, 13901.31, -187500.02, -187500.02, -187500.02, -187500.02, -167287.31, -187500.02, -187500.02, 0.00, 0.00, 0.00, 10:32:39.343
147, 13657.34, -187500.02, -187500.02, -187500.02, -187500.02, -167362.59, -187500.02, -187500.02, 0.00, 0.00, 0.00, 10:32:39.347
148, 13435.81, -187500.02, -187500.02, -187500.02, -187500.02, -167350.09, -187500.02, -187500.02, 0.00, 0.00, 0.00, 10:32:39.351
149, 13644.71, -187500.02, -187500.02, -187500.02, -187500.02, -167298.08, -187500.02, -187500.02, 0.00, 0.00, 0.00, 10:32:39.357
150, 13886.24, -187500.02, -187500.02, -187500.02, -187500.02, -167301.59, -187500.02, -187500.02, 0.00, 0.00, 0.00, 10:32:39.361
151, 13701.08, -187500.02, -187500.02, -187500.02, -187500.02, -167380.88, -187500.02, -187500.02, 0.00, 0.00, 0.00, 10:32:39.365
152, 13469.72, -187500.02, -187500.02, -187500.02, -187500.02, -167438.55, -187500.02, -187500.02, 0.00, 0.00, 0.00, 10:32:39.368
153, 13617.22, -187500.02, -187500.02, -187500.02, -187500.02, -167395.05, -187500.02, -187500.02, 0.00, -0.19, 1.00, 10:32:39.371
154, 13841.41, -187500.02, -187500.02, -187500.02, -187500.02, -167317.13, -187500.02, -187500.02, 0.00, 0.00, 0.00, 10:32:39.375
155, 13745.12, -187500.02, -187500.02, -187500.02, -187500.02, -167358.72, -187500.02, -187500.02, 0.00, 0.00, 0.00, 10:32:39.380
156, 13503.52, -187500.02, -187500.02, -187500.02, -187500.02, -167453.19, -187500.02, -187500.02, 0.00, 0.00, 0.00, 10:32:39.384
157, 13590.89, -187500.02, -187500.02, -187500.02, -187500.02, -167439.44, -187500.02, -187500.02, 0.00, 0.00, 0.00, 10:32:39.388
158, 13849.68, -187500.02, -187500.02, -187500.02, -187500.02, -167376.50, -187500.02, -187500.02, 0.00, 0.00, 0.00, 10:32:39.392
159, 13789.91, -187500.02, -187500.02, -187500.02, -187500.02, -167422.41, -187500.02, -187500.02, 0.00, 0.00, 0.00, 10:32:39.395
160, 13452.46, -187500.02, -187500.02, -187500.02, -187500.02, -167452.98, -187500.02, -187500.02, 0.00, 0.00, 0.00, 10:32:39.399
161, 13502.96, -187500.02, -187500.02, -187500.02, -187500.02, -167452.61, -187500.02, -187500.02, 0.00, 0.00, 0.00, 10:32:39.405
162, 13807.52, -187500.02, -187500.02, -187500.02, -187500.02, -167410.97, -187500.02, -187500.02, 0.00, 0.00, 0.00, 10:32:39.408
163, 13856.49, -187500.02, -187500.02, -187500.02, -187500.02, -167443.94, -187500.02, -187500.02, 0.00, -0.19, 1.00, 10:32:39.411
164, 13549.18, -187500.02, -187500.02, -187500.02, -187500.02, -167531.34, -187500.02, -187500.02, 0.00, 0.00, 0.00, 10:32:39.416
165, 13465.12, -187500.02, -187500.02, -187500.02, -187500.02, -167513.00, -187500.02, -187500.02, 0.00, 0.00, 0.00, 10:32:39.420
166, 13763.94, -187500.02, -187500.02, -187500.02, -187500.02, -167462.81, -187500.02, -187500.02, 0.00, 0.00, 0.00, 10:32:39.423
167, 13830.88, -187500.02, -187500.02, -187500.02, -187500.02, -167440.17, -187500.02, -187500.02, 0.00, 0.00, 0.00, 10:32:39.427
168, 13533.35, -187500.02, -187500.02, -187500.02, -187500.02, -167504.33, -187500.02, -187500.02, 0.00, 0.00, 0.00, 10:32:39.432
169, 13399.22, -187500.02, -187500.02, -187500.02, -187500.02, -167513.95, -187500.02, -187500.02, 0.00, 0.00, 0.00, 10:32:39.437
170, 13699.09, -187500.02, -187500.02, -187500.02, -187500.02, -167472.63, -187500.02, -187500.02, 0.00, 0.00, 0.00, 10:32:39.441
171, 13909.07, -187500.02, -187500.02, -187500.02, -187500.02, -167497.63, -187500.02, -187500.02, 0.00, 0.00, 0.00, 10:32:39.444
172, 13652.80, -187500.02, -187500.02, -187500.02, -187500.02, -167568.92, -187500.02, -187500.02, 0.00, 0.00, 0.00, 10:32:39.448
173, 13435.05, -187500.02, -187500.02, -187500.02, -187500.02, -167587.20, -187500.02, -187500.02, -0.00, -0.19, 1.00, 10:32:39.451
174, 13649.61, -187500.02, -187500.02, -187500.02, -187500.02, -167531.33, -187500.02, -187500.02, 0.00, 0.00, 0.00, 10:32:39.455
175, 13889.44, -187500.02, -187500.02, -187500.02, -187500.02, -167531.11, -187500.02, -187500.02, 0.00, 0.00, 0.00, 10:32:39.459
176, 13653.47, -187500.02, -187500.02, -187500.02, -187500.02, -167571.72, -187500.02, -187500.02, 0.00, 0.00, 0.00, 10:32:39.464
177, 13353.13, -187500.02, -187500.02, -187500.02, -187500.02, -167565.69, -187500.02, -187500.02, 0.00, 0.00, 0.00, 10:32:39.467
178, 13551.19, -187500.02, -187500.02, -187500.02, -187500.02, -167530.52, -187500.02, -187500.02, 0.00, 0.00, 0.00, 10:32:39.472
179, 13881.95, -187500.02, -187500.02, -187500.02, -187500.02, -167529.27, -187500.02, -187500.02, 0.00, 0.00, 0.00, 10:32:39.476
180, 13783.74, -187500.02, -187500.02, -187500.02, -187500.02, -167593.98, -187500.02, -187500.02, 0.00, 0.00, 0.00, 10:32:39.479
181, 13441.80, -187500.02, -187500.02, -187500.02, -187500.02, -167623.28, -187500.02, -187500.02, 0.00, 0.00, 0.00, 10:32:39.483
182, 13582.69, -187500.02, -187500.02, -187500.02, -187500.02, -167667.84, -187500.02, -187500.02, 0.00, -0.19, 1.00, 10:32:39.487
183, 13845.03, -187500.02, -187500.02, -187500.02, -187500.02, -167622.50, -187500.02, -187500.02, 0.00, 0.00, 0.00, 10:32:39.492
184, 13775.07, -187500.02, -187500.02, -187500.02, -187500.02, -167619.02, -187500.02, -187500.02, 0.00, 0.00, 0.00, 10:32:39.495
185, 13456.20, -187500.02, -187500.02, -187500.02, -187500.02, -167678.41, -187500.02, -187500.02, 0.00, 0.00, 0.00, 10:32:39.500
186, 13467.55, -187500.02, -187500.02, -187500.02, -187500.02, -167666.84, -187500.02, -187500.02, 0.00, 0.00, 0.00, 10:32:39.503
187, 13776.97, -187500.02, -187500.02, -187500.02, -187500.02, -167628.36, -187500.02, -187500.02, 0.00, 0.00, 0.00, 10:32:39.507
188, 13811.99, -187500.02, -187500.02, -187500.02, -187500.02, -167617.56, -187500.02, -187500.02, 0.00, 0.00, 0.00, 10:32:39.511
189, 13547.75, -187500.02, -187500.02, -187500.02, -187500.02, -167727.86, -187500.02, -187500.02, 0.00, 0.00, 0.00, 10:32:39.515
190, 13451.53, -187500.02, -187500.02, -187500.02, -187500.02, -167714.23, -187500.02, -187500.02, 0.00, 0.00, 0.00, 10:32:39.520
191, 13711.34, -187500.02, -187500.02, -187500.02, -187500.02, -167629.47, -187500.02, -187500.02, 0.00, 0.00, 0.00, 10:32:39.523
192, 13846.44, -187500.02, -187500.02, -187500.02, -187500.02, -167647.78, -187500.02, -187500.02, 0.00, -0.19, 1.00, 10:32:39.528
193, 13528.19, -187500.02, -187500.02, -187500.02, -187500.02, -167708.06, -187500.02, -187500.02, 0.00, 0.00, 0.00, 10:32:39.531
194, 13378.43, -187500.02, -187500.02, -187500.02, -187500.02, -167703.69, -187500.02, -187500.02, 0.00, 0.00, 0.00, 10:32:39.536
195, 13703.21, -187500.02, -187500.02, -187500.02, -187500.02, -167692.66, -187500.02, -187500.02, 0.00, 0.00, 0.00, 10:32:39.539
196, 13919.75, -187500.02, -187500.02, -187500.02, -187500.02, -167738.86, -187500.02, -187500.02, 0.00, 0.00, 0.00, 10:32:39.543
197, 13604.86, -187500.02, -187500.02, -187500.02, -187500.02, -167750.33, -187500.02, -187500.02, 0.00, 0.00, 0.00, 10:32:39.547
198, 13392.65, -187500.02, -187500.02, -187500.02, -187500.02, -167760.00, -187500.02, -187500.02, 0.00, 0.00, 0.00, 10:32:39.551
199, 13606.24, -187500.02, -187500.02, -187500.02, -187500.02, -167721.20, -187500.02, -187500.02, 0.00, 0.00, 0.00, 10:32:39.555
200, 13812.55, -187500.02, -187500.02, -187500.02, -187500.02, -167679.03, -187500.02, -187500.02, 0.00, 0.00, 0.00, 10:32:39.559
201, 13635.68, -187500.02, -187500.02, -187500.02, -187500.02, -167686.56, -187500.02, -187500.02, 0.00, 0.00, 0.00, 10:32:39.563
202, 13405.21, -187500.02, -187500.02, -187500.02, -187500.02, -167757.92, -187500.02, -187500.02, 0.00, -0.19, 1.01, 10:32:39.568
203, 13536.28, -187500.02, -187500.02, -187500.02, -187500.02, -167716.44, -187500.02, -187500.02, 0.00, 0.00, 0.00, 10:32:39.571
204, 13844.18, -187500.02, -187500.02, -187500.02, -187500.02, -167722.91, -187500.02, -187500.02, 0.00, 0.00, 0.00, 10:32:39.575
205, 13729.87, -187500.02, -187500.02, -187500.02, -187500.02, -167750.16, -187500.02, -187500.02, 0.00, 0.00, 0.00, 10:32:39.580
206, 13414.18, -187500.02, -187500.02, -187500.02, -187500.02, -167806.81, -187500.02, -187500.02, 0.00, 0.00, 0.00, 10:32:39.583
207, 13443.75, -187500.02, -187500.02, -187500.02, -187500.02, -167764.52, -187500.02, -187500.02, 0.00, 0.00, 0.00, 10:32:39.586
208, 13785.95, -187500.02, -187500.02, -187500.02, -187500.02, -167695.34, -187500.02, -187500.02, 0.00, 0.00, 0.00, 10:32:39.591
209, 13833.58, -187500.02, -187500.02, -187500.02, -187500.02, -167788.39, -187500.02, -187500.02, 0.00, 0.00, 0.00, 10:32:39.596
210, 13495.58, -187500.02, -187500.02, -187500.02, -187500.02, -167863.36, -187500.02, -187500.02, 0.00, 0.00, 0.00, 10:32:39.599
211, 13453.83, -187500.02, -187500.02, -187500.02, -187500.02, -167833.86, -187500.02, -187500.02, 0.00, 0.00, 0.00, 10:32:39.603
212, 13757.23, -187500.02, -187500.02, -187500.02, -187500.02, -167786.30, -187500.02, -187500.02, 0.00, -0.19, 1.01, 10:32:39.608
213, 13808.26, -187500.02, -187500.02, -187500.02, -187500.02, -167804.17, -187500.02, -187500.02, 0.00, 0.00, 0.00, 10:32:39.610
214, 13498.62, -187500.02, -187500.02, -187500.02, -187500.02, -167855.05, -187500.02, -187500.02, 0.00, 0.00, 0.00, 10:32:39.614
215, 13387.82, -187500.02, -187500.02, -187500.02, -187500.02, -167828.16, -187500.02, -187500.02, 0.00, 0.00, 0.00, 10:32:39.619
216, 13712.95, -187500.02, -187500.02, -187500.02, -187500.02, -167818.48, -187500.02, -187500.02, 0.00, 0.00, 0.00, 10:32:39.622
217, 13916.73, -187500.02, -187500.02, -187500.02, -187500.02, -167901.20, -187500.02, -187500.02, 0.00, 0.00, 0.00, 10:32:39.627
218, 13602.51, -187500.02, -187500.02, -187500.02, -187500.02, -167958.06, -187500.02, -187500.02, 0.00, 0.00, 0.00, 10:32:39.632
219, 13403.13, -187500.02, -187500.02, -187500.02, -187500.02, -167933.59, -187500.02, -187500.02, 0.00, 0.00, 0.00, 10:32:39.635
220, 13643.62, -187500.02, -187500.02, -187500.02, -187500.02, -167867.09, -187500.02, -187500.02, 0.00, 0.00, 0.00, 10:32:39.639
221, 13829.67, -187500.02, -187500.02, -187500.02, -187500.02, -167875.59, -187500.02, -187500.02, 0.00, 0.00, 0.00, 10:32:39.643
222, 13579.51, -187500.02, -187500.02, -187500.02, -187500.02, -167916.67, -187500.02, -187500.02, 0.00, -0.20, 1.00, 10:32:39.646
223, 13321.71, -187500.02, -187500.02, -187500.02, -187500.02, -167898.05, -187500.02, -187500.02, 0.00, 0.00, 0.00, 10:32:39.650
224, 13588.94, -187500.02, -187500.02, -187500.02, -187500.02, -167890.97, -187500.02, -187500.02, 0.00, 0.00, 0.00, 10:32:39.656
225, 13866.31, -187500.02, -187500.02, -187500.02, -187500.02, -167888.63, -187500.02, -187500.02, 0.00, 0.00, 0.00, 10:32:39.660
226, 13720.04, -187500.02, -187500.02, -187500.02, -187500.02, -167952.44, -187500.02, -187500.02, 0.00, 0.00, 0.00, 10:32:39.663
227, 13414.71, -187500.02, -187500.02, -187500.02, -187500.02, -167978.31, -187500.02, -187500.02, 0.00, 0.00, 0.00, 10:32:39.667
228, 13550.25, -187500.02, -187500.02, -187500.02, -187500.02, -167983.84, -187500.02, -187500.02, 0.00, 0.00, 0.00, 10:32:39.671
229, 13810.58, -187500.02, -187500.02, -187500.02, -187500.02, -167947.78, -187500.02, -187500.02, 0.00, 0.00, 0.00, 10:32:39.674
230, 13717.42, -187500.02, -187500.02, -187500.02, -187500.02, -167987.56, -187500.02, -187500.02, 0.00, 0.00, 0.00, 10:32:39.679
231, 13387.26, -187500.02, -187500.02, -187500.02, -187500.02, -168021.67, -187500.02, -187500.02, 0.01, -0.20, 1.00, 10:32:39.684
232, 13415.29, -187500.02, -187500.02, -187500.02, -187500.02, -167975.45, -187500.02, -187500.02, 0.00, 0.00, 0.00, 10:32:39.687
233, 13786.94, -187500.02, -187500.02, -187500.02, -187500.02, -167966.69, -187500.02, -187500.02, 0.00, 0.00, 0.00, 10:32:39.691
234, 13794.85, -187500.02, -187500.02, -187500.02, -187500.02, -167984.34, -187500.02, -187500.02, 0.00, 0.00, 0.00, 10:32:39.695
235, 13417.42, -187500.02, -187500.02, -187500.02, -187500.02, -168021.77, -187500.02, -187500.02, 0.00, 0.00, 0.00, 10:32:39.698
236, 13348.64, -187500.02, -187500.02, -187500.02, -187500.02, -167968.34, -187500.02, -187500.02, 0.00, 0.00, 0.00, 10:32:39.703
237, 13697.33, -187500.02, -187500.02, -187500.02, -187500.02, -167929.39, -187500.02, -187500.02, 0.00, 0.00, 0.00, 10:32:39.707
238, 13830.12, -187500.02, -187500.02, -187500.02, -187500.02, -167992.55, -187500.02, -187500.02, 0.00, 0.00, 0.00, 10:32:39.711
239, 13518.27, -187500.02, -187500.02, -187500.02, -187500.02, -168068.97, -187500.02, -187500.02, 0.00, 0.00, 0.00, 10:32:39.715
240, 13391.91, -187500.02, -187500.02, -187500.02, -187500.02, -168062.36, -187500.02, -187500.02, 0.00, 0.00, 0.00, 10:32:39.719
241, 13675.22, -187500.02, -187500.02, -187500.02, -187500.02, -168019.53, -187500.02, -187500.02, 0.00, -0.18, 1.01, 10:32:39.722
242, 13855.67, -187500.02, -187500.02, -187500.02, -187500.02, -168027.88, -187500.02, -187500.02, 0.00, 0.00, 0.00, 10:32:39.727
243, 13564.31, -187500.02, -187500.02, -187500.02, -187500.02, -168111.42, -187500.02, -187500.02, 0.00, 0.00, 0.00, 10:32:39.731
244, 13367.53, -187500.02, -187500.02, -187500.02, -187500.02, -168120.70, -187500.02, -187500.02, 0.00, 0.00, 0.00, 10:32:39.734
245, 13615.92, -187500.02, -187500.02, -187500.02, -187500.02, -168076.70, -187500.02, -187500.02, 0.00, 0.00, 0.00, 10:32:39.739
246, 13803.88, -187500.02, -187500.02, -187500.02, -187500.02, -168024.73, -187500.02, -187500.02, 0.00, 0.00, 0.00, 10:32:39.744
247, 13566.88, -187500.02, -187500.02, -187500.02, -187500.02, -168088.00, -187500.02, -187500.02, 0.00, 0.00, 0.00, 10:32:39.746
248, 13291.29, -187500.02, -187500.02, -187500.02, -187500.02, -168092.52, -187500.02, -187500.02, 0.00, 0.00, 0.00, 10:32:39.750
249, 13499.80, -187500.02, -187500.02, -187500.02, -187500.02, -168044.30, -187500.02, -187500.02, 0.00, 0.00, 0.00, 10:32:39.755
250, 13830.25, -187500.02, -187500.02, -187500.02, -187500.02, -168055.30, -187500.02, -187500.02, 0.00, 0.00, 0.00, 10:32:39.759
251, 13648.44, -187500.02, -187500.02, -187500.02, -187500.02, -168087.33, -187500.02, -187500.02, -0.00, -0.18, 1.01, 10:32:39.762
252, 13339.36, -187500.02, -187500.02, -187500.02, -187500.02, -168115.00, -187500.02, -187500.02, 0.00, 0.00, 0.00, 10:32:39.767
253, 13489.90, -187500.02, -187500.02, -187500.02, -187500.02, -168097.50, -187500.02, -187500.02, 0.00, 0.00, 0.00, 10:32:39.772
254, 13755.44, -187500.02, -187500.02, -187500.02, -187500.02, -168070.92, -187500.02, -187500.02, 0.00, 0.00, 0.00, 10:32:39.775
255, 13666.08, -187500.02, -187500.02, -187500.02, -187500.02, -168077.00, -187500.02, -187500.02, 0.00, 0.00, 0.00, 10:32:39.779
0, 13339.81, -187500.02, -187500.02, -187500.02, -187500.02, -168120.78, -187500.02, -187500.02, 0.00, 0.00, 0.00, 10:32:39.782
1, 13373.38, -187500.02, -187500.02, -187500.02, -187500.02, -168088.88, -187500.02, -187500.02, 0.00, 0.00, 0.00, 10:32:39.786
2, 13742.88, -187500.02, -187500.02, -187500.02, -187500.02, -168069.58, -187500.02, -187500.02, 0.00, 0.00, 0.00, 10:32:39.791
3, 13774.11, -187500.02, -187500.02, -187500.02, -187500.02, -168083.55, -187500.02, -187500.02, 0.00, 0.00, 0.00, 10:32:39.796
4, 13485.79, -187500.02, -187500.02, -187500.02, -187500.02, -168196.31, -187500.02, -187500.02, 0.00, 0.00, 0.00, 10:32:39.799
5, 13419.63, -187500.02, -187500.02, -187500.02, -187500.02, -168210.08, -187500.02, -187500.02, 0.00, -0.17, 1.00, 10:32:39.803
6, 13671.76, -187500.02, -187500.02, -187500.02, -187500.02, -168146.20, -187500.02, -187500.02, 0.00, 0.00, 0.00, 10:32:39.806
7, 13759.00, -187500.02, -187500.02, -187500.02, -187500.02, -168143.27, -187500.02, -187500.02, 0.00, 0.00, 0.00, 10:32:39.811
8, 13519.41, -187500.02, -187500.02, -187500.02, -187500.02, -168243.67, -187500.02, -187500.02, 0.00, 0.00, 0.00, 10:32:39.815
9, 13374.59, -187500.02, -187500.02, -187500.02, -187500.02, -168269.11, -187500.02, -187500.02, 0.00, 0.00, 0.00, 10:32:39.818
10, 13644.38, -187500.02, -187500.02, -187500.02, -187500.02, -168223.27, -187500.02, -187500.02, 0.00, 0.00, 0.00, 10:32:39.824
11, 13805.69, -187500.02, -187500.02, -187500.02, -187500.02, -168194.50, -187500.02, -187500.02, 0.00, 0.00, 0.00, 10:32:39.827
12, 13508.59, -187500.02, -187500.02, -187500.02, -187500.02, -168219.58, -187500.02, -187500.02, 0.00, 0.00, 0.00, 10:32:39.829
13, 13349.89, -187500.02, -187500.02, -187500.02, -187500.02, -168275.86, -187500.02, -187500.02, 0.00, 0.00, 0.00, 10:32:39.834
14, 13581.95, -187500.02, -187500.02, -187500.02, -187500.02, -168239.42, -187500.02, -187500.02, 0.00, 0.00, 0.00, 10:32:39.839
15, 13817.76, -187500.02, -187500.02, -187500.02, -187500.02, -168246.52, -187500.02, -187500.02, 0.00, -0.18, 1.00, 10:32:39.842
16, 13558.81, -187500.02, -187500.02, -187500.02, -187500.02, -168269.45, -187500.02, -187500.02, 0.00, 0.00, 0.00, 10:32:39.846
17, 13263.37, -187500.02, -187500.02, -187500.02, -187500.02, -168237.70, -187500.02, -187500.02, 0.00, 0.00, 0.00, 10:32:39.851
18, 13479.53, -187500.02, -187500.02, -187500.02, -187500.02, -168209.81, -187500.02, -187500.02, 0.00, 0.00, 0.00, 10:32:39.855
19, 13761.88, -187500.02, -187500.02, -187500.02, -187500.02, -168193.39, -187500.02, -187500.02, 0.00, 0.00, 0.00, 10:32:39.857
20, 13708.28, -187500.02, -187500.02, -187500.02, -187500.02, -168295.70, -187500.02, -187500.02, 0.00, 0.00, 0.00, 10:32:39.863
21, 13385.21, -187500.02, -187500.02, -187500.02, -187500.02, -168347.67, -187500.02, -187500.02, 0.00, 0.00, 0.00, 10:32:39.867
22, 13381.52, -187500.02, -187500.02, -187500.02, -187500.02, -168257.00, -187500.02, -187500.02, 0.00, 0.00, 0.00, 10:32:39.870
23, 13721.24, -187500.02, -187500.02, -187500.02, -187500.02, -168231.20, -187500.02, -187500.02, 0.00, 0.00, 0.00, 10:32:39.874
24, 13654.59, -187500.02, -187500.02, -187500.02, -187500.02, -168263.92, -187500.02, -187500.02, 0.01, -0.16, 1.00, 10:32:39.879
25, 13316.27, -187500.02, -187500.02, -187500.02, -187500.02, -168308.56, -187500.02, -187500.02, 0.00, 0.00, 0.00, 10:32:39.883
26, 13338.02, -187500.02, -187500.02, -187500.02, -187500.02, -168315.94, -187500.02, -187500.02, 0.00, 0.00, 0.00, 10:32:39.886
27, 13699.14, -187500.02, -187500.02, -187500.02, -187500.02, -168237.16, -187500.02, -187500.02, 0.00, 0.00, 0.00, 10:32:39.891
28, 13774.84, -187500.02, -187500.02, -187500.02, -187500.02, -168319.47, -187500.02, -187500.02, 0.00, 0.00, 0.00, 10:32:39.895
29, 13446.05, -187500.02, -187500.02, -187500.02, -187500.02, -168381.97, -187500.02, -187500.02, 0.00, 0.00, 0.00, 10:32:39.898
30, 13384.58, -187500.02, -187500.02, -187500.02, -187500.02, -168381.36, -187500.02, -187500.02, 0.00, 0.00, 0.00, 10:32:39.902
31, 13672.90, -187500.02, -187500.02, -187500.02, -187500.02, -168328.56, -187500.02, -187500.02, 0.00, 0.00, 0.00, 10:32:39.907
32, 13782.55, -187500.02, -187500.02, -187500.02, -187500.02, -168331.14, -187500.02, -187500.02, 0.00, 0.00, 0.00, 10:32:39.911
33, 13506.53, -187500.02, -187500.02, -187500.02, -187500.02, -168417.69, -187500.02, -187500.02, 0.00, 0.00, 0.00, 10:32:39.913
34, 13296.43, -187500.02, -187500.02, -187500.02, -187500.02, -168412.83, -187500.02, -187500.02, 0.01, -0.13, 1.00, 10:32:39.919
35, 13562.64, -187500.02, -187500.02, -187500.02, -187500.02, -168351.28, -187500.02, -187500.02, 0.00, 0.00, 0.00, 10:32:39.923
36, 13843.96, -187500.02, -187500.02, -187500.02, -187500.02, -168399.89, -187500.02, -187500.02, 0.00, 0.00, 0.00, 10:32:39.927
37, 13610.71, -187500.02, -187500.02, -187500.02, -187500.02, -168477.25, -187500.02, -187500.02, 0.00, 0.00, 0.00, 10:32:39.930
38, 13306.62, -187500.02, -187500.02, -187500.02, -187500.02, -168461.45, -187500.02, -187500.02, 0.00, 0.00, 0.00, 10:32:39.935
39, 13536.17, -187500.02, -187500.02, -187500.02, -187500.02, -168451.88, -187500.02, -187500.02, 0.00, 0.00, 0.00, 10:32:39.939
40, 13783.29, -187500.02, -187500.02, -187500.02, -187500.02, -168408.77, -187500.02, -187500.02, 0.00, 0.00, 0.00, 10:32:39.942
41, 13579.02, -187500.02, -187500.02, -187500.02, -187500.02, -168413.89, -187500.02, -187500.02, 0.00, 0.00, 0.00, 10:32:39.946
42, 13299.42, -187500.02, -187500.02, -187500.02, -187500.02, -168442.50, -187500.02, -187500.02, 0.00, 0.00, 0.00, 10:32:39.951
43, 13438.32, -187500.02, -187500.02, -187500.02, -187500.02, -168418.28, -187500.02, -187500.02, 0.00, 0.00, 0.00, 10:32:39.955
44, 13803.79, -187500.02, -187500.02, -187500.02, -187500.02, -168429.34, -187500.02, -187500.02, 0.01, -0.12, 1.02, 10:32:39.958
45, 13665.70, -187500.02, -187500.02, -187500.02, -187500.02, -168474.50, -187500.02, -187500.02, 0.00, 0.00, 0.00, 10:32:39.962
46, 13297.46, -187500.02, -187500.02, -187500.02, -187500.02, -168486.13, -187500.02, -187500.02, 0.00, 0.00, 0.00, 10:32:39.966
47, 13383.96, -187500.02, -187500.02, -187500.02, -187500.02, -168457.58, -187500.02, -187500.02, 0.00, 0.00, 0.00, 10:32:39.969
48, 13689.26, -187500.02, -187500.02, -187500.02, -187500.02, -168392.98, -187500.02, -187500.02, 0.00, 0.00, 0.00, 10:32:39.974
49, 13678.33, -187500.02, -187500.02, -187500.02, -187500.02, -168417.02, -187500.02, -187500.02, 0.00, 0.00, 0.00, 10:32:39.979
50, 13374.52, -187500.02, -187500.02, -187500.02, -187500.02, -168487.72, -187500.02, -187500.02, 0.00, 0.00, 0.00, 10:32:39.983
51, 13364.98, -187500.02, -187500.02, -187500.02, -187500.02, -168506.27, -187500.02, -187500.02, 0.00, 0.00, 0.00, 10:32:39.987
52, 13696.95, -187500.02, -187500.02, -187500.02, -187500.02, -168482.39, -187500.02, -187500.02, 0.00, 0.00, 0.00, 10:32:39.990
53, 13811.41, -187500.02, -187500.02, -187500.02, -187500.02, -168522.11, -187500.02, -187500.02, 0.00, 0.00, 0.00, 10:32:39.994
54, 13480.38, -187500.02, -187500.02, -187500.02, -187500.02, -168597.80, -187500.02, -187500.02, 0.00, -0.16, 1.02, 10:32:39.998
55, 13326.91, -187500.02, -187500.02, -187500.02, -187500.02, -168574.09, -187500.02, -187500.02, 0.00, 0.00, 0.00, 10:32:40.001
56, 13605.57, -187500.02, -187500.02, -187500.02, -187500.02, -168534.72, -187500.02, -187500.02, 0.00, 0.00, 0.00, 10:32:40.006
57, 13762.50, -187500.02, -187500.02, -187500.02, -187500.02, -168524.86, -187500.02, -187500.02, 0.00, 0.00, 0.00, 10:32:40.011
58, 13492.12, -187500.02, -187500.02, -187500.02, -187500.02, -168601.28, -187500.02, -187500.02, 0.00, 0.00, 0.00, 10:32:40.015
59, 13302.42, -187500.02, -187500.02, -187500.02, -187500.02, -168633.56, -187500.02, -187500.02, 0.00, 0.00, 0.00, 10:32:40.018
60, 13500.99, -187500.02, -187500.02, -187500.02, -187500.02, -168545.42, -187500.02, -187500.02, 0.00, 0.00, 0.00, 10:32:40.022
61, 13761.37, -187500.02, -187500.02, -187500.02, -187500.02, -168554.08, -187500.02, -187500.02, 0.00, 0.00, 0.00, 10:32:40.026
62, 13546.68, -187500.02, -187500.02, -187500.02, -187500.02, -168623.61, -187500.02, -187500.02, 0.00, 0.00, 0.00, 10:32:40.030
63, 13314.44, -187500.02, -187500.02, -187500.02, -187500.02, -168666.33, -187500.02, -187500.02, -0.03, -0.16, 1.01, 10:32:40.035
64, 13453.36, -187500.02, -187500.02, -187500.02, -187500.02, -168619.03, -187500.02, -187500.02, 0.00, 0.00, 0.00, 10:32:40.039
65, 13688.05, -187500.02, -187500.02, -187500.02, -187500.02, -168574.80, -187500.02, -187500.02, 0.00, 0.00, 0.00, 10:32:40.042
66, 13538.61, -187500.02, -187500.02, -187500.02, -187500.02, -168617.89, -187500.02, -187500.02, 0.00, 0.00, 0.00, 10:32:40.046
67, 13256.82, -187500.02, -187500.02, -187500.02, -187500.02, -168664.81, -187500.02, -187500.02, 0.00, 0.00, 0.00, 10:32:40.049
68, 13379.93, -187500.02, -187500.02, -187500.02, -187500.02, -168636.02, -187500.02, -187500.02, 0.00, 0.00, 0.00, 10:32:40.054
69, 13659.44, -187500.02, -187500.02, -187500.02, -187500.02, -168605.11, -187500.02, -187500.02, 0.00, 0.00, 0.00, 10:32:40.057
70, 13604.01, -187500.02, -187500.02, -187500.02, -187500.02, -168656.17, -187500.02, -187500.02, 0.00, 0.00, 0.00, 10:32:40.062
71, 13278.57, -187500.02, -187500.02, -187500.02, -187500.02, -168679.09, -187500.02, -187500.02, 0.00, 0.00, 0.00, 10:32:40.067
72, 13333.24, -187500.02, -187500.02, -187500.02, -187500.02, -168638.83, -187500.02, -187500.02, 0.00, 0.00, 0.00, 10:32:40.069
73, 13635.26, -187500.02, -187500.02, -187500.02, -187500.02, -168611.81, -187500.02, -187500.02, -0.01, -0.16, 1.02, 10:32:40.074
74, 13640.96, -187500.02, -187500.02, -187500.02, -187500.02, -168677.08, -187500.02, -187500.02, 0.00, 0.00, 0.00, 10:32:40.078
75, 13346.18, -187500.02, -187500.02, -187500.02, -187500.02, -168744.13, -187500.02, -187500.02, 0.00, 0.00, 0.00, 10:32:40.082
76, 13289.72, -187500.02, -187500.02, -187500.02, -187500.02, -168728.03, -187500.02, -187500.02, 0.00, 0.00, 0.00, 10:32:40.086
77, 13567.24, -187500.02, -187500.02, -187500.02, -187500.02, -168684.05, -187500.02, -187500.02, 0.00, 0.00, 0.00, 10:32:40.090
78, 13672.63, -187500.02, -187500.02, -187500.02, -187500.02, -168683.25, -187500.02, -187500.02, 0.00, 0.00, 0.00, 10:32:40.095
79, 13401.95, -187500.02, -187500.02, -187500.02, -187500.02, -168763.28, -187500.02, -187500.02, 0.00, 0.00, 0.00, 10:32:40.098
80, 13214.73, -187500.02, -187500.02, -187500.02, -187500.02, -168765.36, -187500.02, -187500.02, 0.00, 0.00, 0.00, 10:32:40.102
81, 13455.21, -187500.02, -187500.02, -187500.02, -187500.02, -168695.03, -187500.02, -187500.02, 0.00, 0.00, 0.00, 10:32:40.106
82, 13635.90, -187500.02, -187500.02, -187500.02, -187500.02, -168724.70, -187500.02, -187500.02, 0.00, 0.00, 0.00, 10:32:40.110
83, 13401.41, -187500.02, -187500.02, -187500.02, -187500.02, -168795.67, -187500.02, -187500.02, -0.01, -0.17, 1.00, 10:32:40.114
84, 13191.73, -187500.02, -187500.02, -187500.02, -187500.02, -168821.22, -187500.02, -187500.02, 0.00, 0.00, 0.00, 10:32:40.118
85, 13358.03, -187500.02, -187500.02, -187500.02, -187500.02, -168762.48, -187500.02, -187500.02, 0.00, 0.00, 0.00, 10:32:40.123
86, 13591.89, -187500.02, -187500.02, -187500.02, -187500.02, -168733.30, -187500.02, -187500.02, 0.00, 0.00, 0.00, 10:32:40.126
87, 13424.48, -187500.02, -187500.02, -187500.02, -187500.02, -168800.61, -187500.02, -187500.02, 0.00, 0.00, 0.00, 10:32:40.130
88, 13154.49, -187500.02, -187500.02, -187500.02, -187500.02, -168818.34, -187500.02, -187500.02, 0.00, 0.00, 0.00, 10:32:40.134
89, 13311.69, -187500.02, -187500.02, -187500.02, -187500.02, -168797.17, -187500.02, -187500.02, 0.00, 0.00, 0.00, 10:32:40.138
90, 13544.80, -187500.02, -187500.02, -187500.02, -187500.02, -168750.05, -187500.02, -187500.02, 0.00, 0.00, 0.00, 10:32:40.142
91, 13440.33, -187500.02, -187500.02, -187500.02, -187500.02, -168788.39, -187500.02, -187500.02, 0.00, 0.00, 0.00, 10:32:40.146
92, 13111.94, -187500.02, -187500.02, -187500.02, -187500.02, -168801.06, -187500.02, -187500.02, 0.00, 0.00, 0.00, 10:32:40.151
93, 13181.02, -187500.02, -187500.02, -187500.02, -187500.02, -168765.19, -187500.02, -187500.02, -0.02, -0.17, 1.01, 10:32:40.154
94, 13543.46, -187500.02, -187500.02, -187500.02, -187500.02, -168803.47, -187500.02, -187500.02, 0.00, 0.00, 0.00, 10:32:40.158
95, 13474.39, -187500.02, -187500.02, -187500.02, -187500.02, -168833.25, -187500.02, -187500.02, 0.00, 0.00, 0.00, 10:32:40.162
96, 13189.27, -187500.02, -187500.02, -187500.02, -187500.02, -168875.05, -187500.02, -187500.02, 0.00, 0.00, 0.00, 10:32:40.166
97, 13172.02, -187500.02, -187500.02, -187500.02, -187500.02, -168875.00, -187500.02, -187500.02, 0.00, 0.00, 0.00, 10:32:40.170
98, 13398.42, -187500.02, -187500.02, -187500.02, -187500.02, -168787.89, -187500.02, -187500.02, 0.00, 0.00, 0.00, 10:32:40.175
99, 13470.84, -187500.02, -187500.02, -187500.02, -187500.02, -168812.19, -187500.02, -187500.02, 0.00, 0.00, 0.00, 10:32:40.179
100, 13202.48, -187500.02, -187500.02, -187500.02, -187500.02, -168886.58, -187500.02, -187500.02, 0.00, 0.00, 0.00, 10:32:40.182
101, 13158.32, -187500.02, -187500.02, -187500.02, -187500.02, -168929.81, -187500.02, -187500.02, 0.00, 0.00, 0.00, 10:32:40.185
102, 13376.20, -187500.02, -187500.02, -187500.02, -187500.02, -168854.81, -187500.02, -187500.02, 0.00, 0.00, 0.00, 10:32:40.190
103, 13514.04, -187500.02, -187500.02, -187500.02, -187500.02, -168869.23, -187500.02, -187500.02, -0.02, -0.18, 1.00, 10:32:40.194
104, 13268.60, -187500.02, -187500.02, -187500.02, -187500.02, -168977.17, -187500.02, -187500.02, 0.00, 0.00, 0.00, 10:32:40.198
105, 13060.06, -187500.02, -187500.02, -187500.02, -187500.02, -168949.31, -187500.02, -187500.02, 0.00, 0.00, 0.00, 10:32:40.202
106, 13334.11, -187500.02, -187500.02, -187500.02, -187500.02, -168925.11, -187500.02, -187500.02, 0.00, 0.00, 0.00, 10:32:40.206
107, 13472.71, -187500.02, -187500.02, -187500.02, -187500.02, -168927.11, -187500.02, -187500.02, 0.00, 0.00, 0.00, 10:32:40.209
108, 13253.11, -187500.02, -187500.02, -187500.02, -187500.02, -168994.77, -187500.02, -187500.02, 0.00, 0.00, 0.00, 10:32:40.213
109, 13020.85, -187500.02, -187500.02, -187500.02, -187500.02, -169003.36, -187500.02, -187500.02, 0.00, 0.00, 0.00, 10:32:40.218
110, 13201.36, -187500.02, -187500.02, -187500.02, -187500.02, -168930.95, -187500.02, -187500.02, 0.00, 0.00, 0.00, 10:32:40.222
111, 13485.68, -187500.02, -187500.02, -187500.02, -187500.02, -168937.47, -187500.02, -187500.02, 0.00, 0.00, 0.00, 10:32:40.227
112, 13297.52, -187500.02, -187500.02, -187500.02, -187500.02, -168991.55, -187500.02, -187500.02, -0.01, -0.16, 1.01, 10:32:40.230
113, 13021.19, -187500.02, -187500.02, -187500.02, -187500.02, -169025.05, -187500.02, -187500.02, 0.00, 0.00, 0.00, 10:32:40.234
114, 13138.31, -187500.02, -187500.02, -187500.02, -187500.02, -168989.33, -187500.02, -187500.02, 0.00, 0.00, 0.00, 10:32:40.237
115, 13370.88, -187500.02, -187500.02, -187500.02, -187500.02, -168933.19, -187500.02, -187500.02, 0.00, 0.00, 0.00, 10:32:40.241
116, 13301.37, -187500.02, -187500.02, -187500.02, -187500.02, -168995.16, -187500.02, -187500.02, 0.00, 0.00, 0.00, 10:32:40.246
117, 13029.57, -187500.02, -187500.02, -187500.02, -187500.02, -169045.98, -187500.02, -187500.02, 0.00, 0.00, 0.00, 10:32:40.250
118, 13060.86, -187500.02, -187500.02, -187500.02, -187500.02, -169005.25, -187500.02, -187500.02, 0.00, 0.00, 0.00, 10:32:40.254
119, 13343.21, -187500.02, -187500.02, -187500.02, -187500.02, -168996.73, -187500.02, -187500.02, 0.00, 0.00, 0.00, 10:32:40.258
120, 13320.75, -187500.02, -187500.02, -187500.02, -187500.02, -169034.30, -187500.02, -187500.02, 0.00, 0.00, 0.00, 10:32:40.263
121, 13017.79, -187500.02, -187500.02, -187500.02, -187500.02, -169090.69, -187500.02, -187500.02, 0.00, 0.00, 0.00, 10:32:40.265
122, 13008.58, -187500.02, -187500.02, -187500.02, -187500.02, -169088.13, -187500.02, -187500.02, -0.00, -0.16, 1.02, 10:32:40.269
123, 13263.32, -187500.02, -187500.02, -187500.02, -187500.02, -169005.83, -187500.02, -187500.02, 0.00, 0.00, 0.00, 10:32:40.274
124, 13324.14, -187500.02, -187500.02, -187500.02, -187500.02, -168987.86, -187500.02, -187500.02, 0.00, 0.00, 0.00, 10:32:40.279
125, 13046.51, -187500.02, -187500.02, -187500.02, -187500.02, -169064.39, -187500.02, -187500.02, 0.00, 0.00, 0.00, 10:32:40.282
126, 12969.62, -187500.02, -187500.02, -187500.02, -187500.02, -169077.34, -187500.02, -187500.02, 0.00, 0.00, 0.00, 10:32:40.286
127, 13256.95, -187500.02, -187500.02, -187500.02, -187500.02, -169074.77, -187500.02, -187500.02, 0.00, 0.00, 0.00, 10:32:40.290
128, 13381.41, -187500.02, -187500.02, -187500.02, -187500.02, -169080.86, -187500.02, -187500.02, 0.00, 0.00, 0.00, 10:32:40.293
129, 13176.60, -187500.02, -187500.02, -187500.02, -187500.02, -169171.77, -187500.02, -187500.02, 0.00, 0.00, 0.00, 10:32:40.297
130, 13021.52, -187500.02, -187500.02, -187500.02, -187500.02, -169158.44, -187500.02, -187500.02, 0.00, 0.00, 0.00, 10:32:40.303
0, 0.00, 0.00, 0.00, 0.00, 0.00, 0.00, 0.00, 0.00, -0.01, -0.18, 1.00, 10:32:40.319
1, 11572.79, 0.00, -187500.02, -187500.02, -187500.02, -165986.42, -187500.02, -187500.02, 0.00, 0.00, 0.00, 10:32:40.336
2, 11936.93, 0.00, -187500.02, -187500.02, -187500.02, -166007.39, -187500.02, -187500.02, 0.00, 0.00, 0.00, 10:32:40.340
3, 12300.95, 0.00, -187500.02, -187500.02, -187500.02, -166026.16, -187500.02, -187500.02, 0.00, 0.00, 0.00, 10:32:40.344
4, 12271.08, 0.00, -187500.02, -187500.02, -187500.02, -166126.56, -187500.02, -187500.02, 0.00, 0.00, 0.00, 10:32:40.346
5, 12168.63, 0.00, -187500.02, -187500.02, -187500.02, -166230.50, -187500.02, -187500.02, 0.01, -0.21, 1.02, 10:32:40.351
6, 12436.29, 0.00, -187500.02, -187500.02, -187500.02, -166273.53, -187500.02, -187500.02, 0.00, 0.00, 0.00, 10:32:40.354
7, 12741.66, 0.00, -187500.02, -187500.02, -187500.02, -166253.52, -187500.02, -187500.02, 0.00, 0.00, 0.00, 10:32:40.359
8, 12710.79, 0.00, -187500.02, -187500.02, -187500.02, -166326.55, -187500.02, -187500.02, 0.00, 0.00, 0.00, 10:32:40.363
9, 12483.40, 0.00, -187500.02, -187500.02, -187500.02, -166413.81, -187500.02, -187500.02, 0.00, 0.00, 0.00, 10:32:40.366
10, 12573.44, 0.00, -187500.02, -187500.02, -187500.02, -166404.97, -187500.02, -187500.02, 0.00, 0.00, 0.00, 10:32:40.371
11, 12858.11, 0.00, -187500.02, -187500.02, -187500.02, -166381.33, -187500.02, -187500.02, 0.00, 0.00, 0.00, 10:32:40.374
12, 12841.70, 0.00, -187500.02, -187500.02, -187500.02, -166421.52, -187500.02, -187500.02, 0.00, 0.00, 0.00, 10:32:40.378
13, 12542.61, 0.00, -187500.02, -187500.02, -187500.02, -166457.81, -187500.02, -187500.02, 0.00, 0.00, 0.00, 10:32:40.383
14, 12566.91, 0.00, -187500.02, -187500.02, -187500.02, -166445.20, -187500.02, -187500.02, 0.05, -0.15, 1.08, 10:32:40.387
15, 12867.23, 0.00, -187500.02, -187500.02, -187500.02, -166428.33, -187500.02, -187500.02, 0.00, 0.00, 0.00, 10:32:40.390
16, 12904.98, 0.00, -187500.02, -187500.02, -187500.02, -166415.86, -187500.02, -187500.02, 0.00, 0.00, 0.00, 10:32:40.395
17, 12666.44, 0.00, -187500.02, -187500.02, -187500.02, -166485.89, -187500.02, -187500.02, 0.00, 0.00, 0.00, 10:32:40.398
18, 12595.50, 0.00, -187500.02, -187500.02, -187500.02, -166468.61, -187500.02, -187500.02, 0.00, 0.00, 0.00, 10:32:40.402
19, 12908.91, 0.00, -187500.02, -187500.02, -187500.02, -166425.86, -187500.02, -187500.02, 0.00, 0.00, 0.00, 10:32:40.406
20, 13009.47, 0.00, -187500.02, -187500.02, -187500.02, -166427.16, -187500.02, -187500.02, 0.00, 0.00, 0.00, 10:32:40.411
21, 12732.22, 0.00, -187500.02, -187500.02, -187500.02, -166515.81, -187500.02, -187500.02, 0.00, 0.00, 0.00, 10:32:40.415
22, 12572.43, 0.00, -187500.02, -187500.02, -187500.02, -166486.16, -187500.02, -187500.02, 0.00, 0.00, 0.00, 10:32:40.419
23, 12836.52, 0.00, -187500.02, -187500.02, -187500.02, -166419.08, -187500.02, -187500.02, 0.00, 0.00, 0.00, 10:32:40.421
24, 13065.24, 0.00, -187500.02, -187500.02, -187500.02, -166434.03, -187500.02, -187500.02, 0.01, -0.15, 1.04, 10:32:40.426
25, 12887.86, 0.00, -187500.02, -187500.02, -187500.02, -166525.16, -187500.02, -187500.02, 0.00, 0.00, 0.00, 10:32:40.430
26, 12683.09, 0.00, -187500.02, -187500.02, -187500.02, -166543.28, -187500.02, -187500.02, 0.00, 0.00, 0.00, 10:32:40.435
27, 12908.45, 0.00, -187500.02, -187500.02, -187500.02, -166541.03, -187500.02, -187500.02, 0.00, 0.00, 0.00, 10:32:40.439
28, 13128.34, 0.00, -187500.02, -187500.02, -187500.02, -166513.27, -187500.02, -187500.02, 0.00, 0.00, 0.00, 10:32:40.442
29, 12990.23, 0.00, -187500.02, -187500.02, -187500.02, -166574.48, -187500.02, -187500.02, 0.00, 0.00, 0.00, 10:32:40.446
30, 12750.28, 0.00, -187500.02, -187500.02, -187500.02, -166628.77, -187500.02, -187500.02, 0.00, 0.00, 0.00, 10:32:40.451
31, 12865.75, 0.00, -187500.02, -187500.02, -187500.02, -166571.00, -187500.02, -187500.02, 0.00, 0.00, 0.00, 10:32:40.454
32, 13143.14, 0.00, -187500.02, -187500.02, -187500.02, -166528.45, -187500.02, -187500.02, 0.00, 0.00, 0.00, 10:32:40.458
33, 13078.47, 0.00, -187500.02, -187500.02, -187500.02, -166600.44, -187500.02, -187500.02, 0.00, 0.00, 0.00, 10:32:40.461
34, 12851.31, 0.00, -187500.02, -187500.02, -187500.02, -166685.14, -187500.02, -187500.02, -0.08, -0.19, 1.03, 10:32:40.466
35, 12927.91, 0.00, -187500.02, -187500.02, -187500.02, -166624.67, -187500.02, -187500.02, 0.00, 0.00, 0.00, 10:32:40.471
36, 13164.86, 0.00, -187500.02, -187500.02, -187500.02, -166590.58, -187500.02, -187500.02, 0.00, 0.00, 0.00, 10:32:40.475
37, 13051.76, 0.00, -187500.02, -187500.02, -187500.02, -166632.67, -187500.02, -187500.02, 0.00, 0.00, 0.00, 10:32:40.478
38, 12815.13, 0.00, -187500.02, -187500.02, -187500.02, -166655.14, -187500.02, -187500.02, 0.00, 0.00, 0.00, 10:32:40.482
39, 12922.30, 0.00, -187500.02, -187500.02, -187500.02, -166615.17, -187500.02, -187500.02, 0.00, 0.00, 0.00, 10:32:40.487
40, 13122.91, 0.00, -187500.02, -187500.02, -187500.02, -166588.16, -187500.02, -187500.02, 0.00, 0.00, 0.00, 10:32:40.492
41, 13003.95, 0.00, -187500.02, -187500.02, -187500.02, -166641.23, -187500.02, -187500.02, 0.00, 0.00, 0.00, 10:32:40.494
42, 12892.73, 0.00, -187500.02, -187500.02, -187500.02, -166712.52, -187500.02, -187500.02, 0.00, 0.00, 0.00, 10:32:40.498
43, 13123.54, 0.00, -187500.02, -187500.02, -187500.02, -166689.22, -187500.02, -187500.02, 0.00, 0.00, 0.00, 10:32:40.503
44, 13217.26, 0.00, -187500.02, -187500.02, -187500.02, -166672.59, -187500.02, -187500.02, -0.00, -0.15, 1.00, 10:32:40.506
45, 12897.25, 0.00, -187500.02, -187500.02, -187500.02, -166708.22, -187500.02, -187500.02, 0.00, 0.00, 0.00, 10:32:40.511
46, 12758.24, 0.00, -187500.02, -187500.02, -187500.02, -166714.89, -187500.02, -187500.02, 0.00, 0.00, 0.00, 10:32:40.515
47, 13065.62, 0.00, -187500.02, -187500.02, -187500.02, -166676.75, -187500.02, -187500.02, 0.00, 0.00, 0.00, 10:32:40.517
0, 0.00, 0.00, 0.00, 0.00, 0.00, 0.00, 0.00, 0.00, 0.00, 0.00, 0.00, 10:32:40.535
1, 10910.49, 0.00, 0.00, -187500.02, -187500.02, -162538.55, -187500.02, -187500.02, 0.08, -0.20, 0.96, 10:32:40.546
2, 11456.14, 0.00, 0.00, -187500.02, -187500.02, -162517.45, -187500.02, -187500.02, 0.00, 0.00, 0.00, 10:32:40.553
3, 11818.66, 0.00, 0.00, -187500.02, -187500.02, -162520.56, -187500.02, -187500.02, 0.00, 0.00, 0.00, 10:32:40.555
4, 11562.51, 0.00, 0.00, -187500.02, -187500.02, -162595.03, -187500.02, -187500.02, 0.00, 0.00, 0.00, 10:32:40.560
5, 11377.04, 0.00, 0.00, -187500.02, -187500.02, -162685.41, -187500.02, -187500.02, 0.00, 0.00, 0.00, 10:32:40.562
6, 11840.25, 0.00, 0.00, -187500.02, -187500.02, -162682.11, -187500.02, -187500.02, 0.00, 0.00, 0.00, 10:32:40.566
7, 12266.06, 0.00, 0.00, -187500.02, -187500.02, -162694.41, -187500.02, -187500.02, 0.00, 0.00, 0.00, 10:32:40.571
8, 12062.14, 0.00, 0.00, -187500.02, -187500.02, -162769.36, -187500.02, -187500.02, 0.00, 0.00, 0.00, 10:32:40.574
9, 11746.49, 0.00, 0.00, -187500.02, -187500.02, -162858.36, -187500.02, -187500.02, 0.00, 0.00, 0.00, 10:32:40.578
10, 12076.56, 0.00, 0.00, -187500.02, -187500.02, -162861.78, -187500.02, -187500.02, 0.04, -0.17, 0.97, 10:32:40.583
11, 12574.15, 0.00, 0.00, -187500.02, -187500.02, -162870.23, -187500.02, -187500.02, 0.00, 0.00, 0.00, 10:32:40.588
12, 12451.69, 0.00, 0.00, -187500.02, -187500.02, -162953.02, -187500.02, -187500.02, 0.00, 0.00, 0.00, 10:32:40.590
13, 12057.18, 0.00, 0.00, -187500.02, -187500.02, -163040.14, -187500.02, -187500.02, 0.00, 0.00, 0.00, 10:32:40.594
14, 12223.25, 0.00, 0.00, -187500.02, -187500.02, -163045.28, -187500.02, -187500.02, 0.00, 0.00, 0.00, 10:32:40.599
15, 12654.86, 0.00, 0.00, -187500.02, -187500.02, -163006.23, -187500.02, -187500.02, 0.00, 0.00, 0.00, 10:32:40.603
16, 12557.99, 0.00, 0.00, -187500.02, -187500.02, -163025.92, -187500.02, -187500.02, 0.00, 0.00, 0.00, 10:32:40.606
17, 12060.31, 0.00, 0.00, -187500.02, -187500.02, -163085.75, -187500.02, -187500.02, 0.00, 0.00, 0.00, 10:32:40.610
18, 12100.32, 0.00, 0.00, -187500.02, -187500.02, -163088.47, -187500.02, -187500.02, 0.00, 0.00, 0.00, 10:32:40.616
19, 12608.75, 0.00, 0.00, -187500.02, -187500.02, -163018.80, -187500.02, -187500.02, 0.00, 0.00, 0.00, 10:32:40.618
20, 12636.20, 0.00, 0.00, -187500.02, -187500.02, -163004.38, -187500.02, -187500.02, 0.03, -0.11, 0.98, 10:32:40.622
21, 12207.02, 0.00, 0.00, -187500.02, -187500.02, -163120.55, -187500.02, -187500.02, 0.00, 0.00, 0.00, 10:32:40.627
22, 12112.05, 0.00, 0.00, -187500.02, -187500.02, -163184.77, -187500.02, -187500.02, 0.00, 0.00, 0.00, 10:32:40.630
23, 12579.41, 0.00, 0.00, -187500.02, -187500.02, -163122.11, -187500.02, -187500.02, 0.00, 0.00, 0.00, 10:32:40.635
24, 12729.47, 0.00, 0.00, -187500.02, -187500.02, -163101.52, -187500.02, -187500.02, 0.00, 0.00, 0.00, 10:32:40.639
25, 12287.00, 0.00, 0.00, -187500.02, -187500.02, -163187.91, -187500.02, -187500.02, 0.00, 0.00, 0.00, 10:32:40.642
26, 12034.31, 0.00, 0.00, -187500.02, -187500.02, -163202.94, -187500.02, -187500.02, 0.00, 0.00, 0.00, 10:32:40.646
27, 12465.37, 0.00, 0.00, -187500.02, -187500.02, -163156.47, -187500.02, -187500.02, 0.00, 0.00, 0.00, 10:32:40.651
28, 12769.08, 0.00, 0.00, -187500.02, -187500.02, -163168.95, -187500.02, -187500.02, 0.00, 0.00, 0.00, 10:32:40.655
29, 12448.78, 0.00, 0.00, -187500.02, -187500.02, -163257.61, -187500.02, -187500.02, 0.00, 0.00, 0.00, 10:32:40.658
30, 12098.98, 0.00, 0.00, -187500.02, -187500.02, -163315.27, -187500.02, -187500.02, 0.03, -0.05, 0.98, 10:32:40.662
31, 12413.62, 0.00, 0.00, -187500.02, -187500.02, -163295.53, -187500.02, -187500.02, 0.00, 0.00, 0.00, 10:32:40.667
32, 12759.20, 0.00, 0.00, -187500.02, -187500.02, -163226.48, -187500.02, -187500.02, 0.00, 0.00, 0.00, 10:32:40.670
33, 12520.44, 0.00, 0.00, -187500.02, -187500.02, -163283.72, -187500.02, -187500.02, 0.00, 0.00, 0.00, 10:32:40.675
34, 12107.72, 0.00, 0.00, -187500.02, -187500.02, -163348.69, -187500.02, -187500.02, 0.00, 0.00, 0.00, 10:32:40.678
35, 12343.73, 0.00, 0.00, -187500.02, -187500.02, -163332.80, -187500.02, -187500.02, 0.00, 0.00, 0.00, 10:32:40.683
36, 12777.22, 0.00, 0.00, -187500.02, -187500.02, -163290.19, -187500.02, -187500.02, 0.00, 0.00, 0.00, 10:32:40.687
37, 12662.13, 0.00, 0.00, -187500.02, -187500.02, -163341.05, -187500.02, -187500.02, 0.00, 0.00, 0.00, 10:32:40.690
38, 12234.43, 0.00, 0.00, -187500.02, -187500.02, -163444.88, -187500.02, -187500.02, 0.00, 0.00, 0.00, 10:32:40.694
39, 12297.28, 0.00, 0.00, -187500.02, -187500.02, -163416.09, -187500.02, -187500.02, 0.00, 0.00, 0.00, 10:32:40.699
40, 12758.96, 0.00, 0.00, -187500.02, -187500.02, -163382.86, -187500.02, -187500.02, 0.03, -0.01, 1.01, 10:32:40.703
41, 12765.62, 0.00, 0.00, -187500.02, -187500.02, -163392.14, -187500.02, -187500.02, 0.00, 0.00, 0.00, 10:32:40.706
42, 12293.62, 0.00, 0.00, -187500.02, -187500.02, -163456.31, -187500.02, -187500.02, 0.00, 0.00, 0.00, 10:32:40.710
43, 12226.60, 0.00, 0.00, -187500.02, -187500.02, -163476.14, -187500.02, -187500.02, 0.00, 0.00, 0.00, 10:32:40.713
44, 12667.49, 0.00, 0.00, -187500.02, -187500.02, -163428.22, -187500.02, -187500.02, 0.00, 0.00, 0.00, 10:32:40.718
45, 12798.52, 0.00, 0.00, -187500.02, -187500.02, -163403.34, -187500.02, -187500.02, 0.00, 0.00, 0.00, 10:32:40.723
46, 12441.83, 0.00, 0.00, -187500.02, -187500.02, -163504.70, -187500.02, -187500.02, 0.00, 0.00, 0.00, 10:32:40.727
47, 12269.16, 0.00, 0.00, -187500.02, -187500.02, -163574.44, -187500.02, -187500.02, 0.00, 0.00, 0.00, 10:32:40.731
48, 12653.95, 0.00, 0.00, -187500.02, -187500.02, -163535.73, -187500.02, -187500.02, 0.00, 0.00, 0.00, 10:32:40.734
49, 12885.53, 0.00, 0.00, -187500.02, -187500.02, -163518.30, -187500.02, -187500.02, 0.00, -0.02, 1.03, 10:32:40.738
50, 12546.77, 0.00, 0.00, -187500.02, -187500.02, -163546.75, -187500.02, -187500.02, 0.00, 0.00, 0.00, 10:32:40.741
51, 12260.36, 0.00, 0.00, -187500.02, -187500.02, -163603.78, -187500.02, -187500.02, 0.00, 0.00, 0.00, 10:32:40.745
52, 12521.74, 0.00, 0.00, -187500.02, -187500.02, -163529.77, -187500.02, -187500.02, 0.00, 0.00, 0.00, 10:32:40.750
53, 12879.32, 0.00, 0.00, -187500.02, -187500.02, -163514.77, -187500.02, -187500.02, 0.00, 0.00, 0.00, 10:32:40.754
54, 12711.88, 0.00, 0.00, -187500.02, -187500.02, -163603.52, -187500.02, -187500.02, 0.00, 0.00, 0.00, 10:32:40.759
55, 12316.75, 0.00, 0.00, -187500.02, -187500.02, -163639.47, -187500.02, -187500.02, 0.00, 0.00, 0.00, 10:32:40.763
56, 12465.61, 0.00, 0.00, -187500.02, -187500.02, -163605.02, -187500.02, -187500.02, 0.00, 0.00, 0.00, 10:32:40.766
57, 12851.65, 0.00, 0.00, -187500.02, -187500.02, -163583.89, -187500.02, -187500.02, 0.00, 0.00, 0.00, 10:32:40.770
58, 12763.49, 0.00, 0.00, -187500.02, -187500.02, -163586.09, -187500.02, -187500.02, 0.00, 0.00, 0.00, 10:32:40.774
59, 12358.97, 0.00, 0.00, -187500.02, -187500.02, -163614.67, -187500.02, -187500.02, -0.01, -0.02, 1.07, 10:32:40.778
60, 12386.75, 0.00, 0.00, -187500.02, -187500.02, -163597.55, -187500.02, -187500.02, 0.00, 0.00, 0.00, 10:32:40.781
61, 12795.68, 0.00, 0.00, -187500.02, -187500.02, -163571.30, -187500.02, -187500.02, 0.00, 0.00, 0.00, 10:32:40.787
62, 12857.59, 0.00, 0.00, -187500.02, -187500.02, -163609.42, -187500.02, -187500.02, 0.00, 0.00, 0.00, 10:32:40.791
63, 12494.31, 0.00, 0.00, -187500.02, -187500.02, -163672.75, -187500.02, -187500.02, 0.00, 0.00, 0.00, 10:32:40.794
64, 12386.29, 0.00, 0.00, -187500.02, -187500.02, -163683.52, -187500.02, -187500.02, 0.00, 0.00, 0.00, 10:32:40.798
65, 12751.38, 0.00, 0.00, -187500.02, -187500.02, -163653.81, -187500.02, -187500.02, 0.00, 0.00, 0.00, 10:32:40.802
66, 12929.66, 0.00, 0.00, -187500.02, -187500.02, -163683.25, -187500.02, -187500.02, 0.00, 0.00, 0.00, 10:32:40.805
67, 12606.70, 0.00, 0.00, -187500.02, -187500.02, -163753.84, -187500.02, -187500.02, 0.00, 0.00, 0.00, 10:32:40.810
68, 12357.25, 0.00, 0.00, -187500.02, -187500.02, -163780.88, -187500.02, -187500.02, 0.00, 0.00, 0.00, 10:32:40.815
69, 12646.08, 0.00, 0.00, -187500.02, -187500.02, -163720.88, -187500.02, -187500.02, -0.03, -0.13, 1.04, 10:32:40.819
70, 12887.10, 0.00, 0.00, -187500.02, -187500.02, -163688.23, -187500.02, -187500.02, 0.00, 0.00, 0.00, 10:32:40.822
71, 12624.15, 0.00, 0.00, -187500.02, -187500.02, -163718.52, -187500.02, -187500.02, 0.00, 0.00, 0.00, 10:32:40.826
72, 12316.77, 0.00, 0.00, -187500.02, -187500.02, -163721.88, -187500.02, -187500.02, 0.00, 0.00, 0.00, 10:32:40.829
0, 0.00, 0.00, 0.00, 0.00, 0.00, 0.00, 0.00, 0.00, 0.00, 0.00, 0.00, 10:32:40.849
1, 10315.42, 0.00, 0.00, 0.00, -187500.02, -158282.91, -187500.02, -187500.02, -0.01, -0.08, 1.02, 10:32:40.865
2, 10617.88, 0.00, 0.00, 0.00, -187500.02, -158287.25, -187500.02, -187500.02, 0.00, 0.00, 0.00, 10:32:40.869
3, 11129.74, 0.00, 0.00, 0.00, -187500.02, -158273.23, -187500.02, -187500.02, 0.00, 0.00, 0.00, 10:32:40.873
4, 11166.06, 0.00, 0.00, 0.00, -187500.02, -158333.20, -187500.02, -187500.02, 0.00, 0.00, 0.00, 10:32:40.875
5, 10886.75, 0.00, 0.00, 0.00, -187500.02, -158466.86, -187500.02, -187500.02, 0.00, 0.00, 0.00, 10:32:40.879
6, 11035.73, 0.00, 0.00, 0.00, -187500.02, -158517.36, -187500.02, -187500.02, 0.00, 0.00, 0.00, 10:32:40.883
7, 11494.74, 0.00, 0.00, 0.00, -187500.02, -158496.97, -187500.02, -187500.02, 0.00, 0.00, 0.00, 10:32:40.887
8, 11573.35, 0.00, 0.00, 0.00, -187500.02, -158539.17, -187500.02, -187500.02, 0.00, 0.00, 0.00, 10:32:40.890
9, 11275.92, 0.00, 0.00, 0.00, -187500.02, -158677.70, -187500.02, -187500.02, 0.04, -0.09, 1.02, 10:32:40.893
10, 11307.93, 0.00, 0.00, 0.00, -187500.02, -158715.81, -187500.02, -187500.02, 0.00, 0.00, 0.00, 10:32:40.898
11, 11752.99, 0.00, 0.00, 0.00, -187500.02, -158699.41, -187500.02, -187500.02, 0.00, 0.00, 0.00, 10:32:40.902
12, 11887.19, 0.00, 0.00, 0.00, -187500.02, -158731.84, -187500.02, -187500.02, 0.00, 0.00, 0.00, 10:32:40.906
13, 11558.09, 0.00, 0.00, 0.00, -187500.02, -158843.50, -187500.02, -187500.02, 0.00, 0.00, 0.00, 10:32:40.911
14, 11482.78, 0.00, 0.00, 0.00, -187500.02, -158925.97, -187500.02, -187500.02, 0.00, 0.00, 0.00, 10:32:40.915
15, 11914.69, 0.00, 0.00, 0.00, -187500.02, -158951.92, -187500.02, -187500.02, 0.00, 0.00, 0.00, 10:32:40.918
16, 12086.35, 0.00, 0.00, 0.00, -187500.02, -158931.33, -187500.02, -187500.02, 0.00, 0.00, 0.00, 10:32:40.922
17, 11750.09, 0.00, 0.00, 0.00, -187500.02, -158988.67, -187500.02, -187500.02, 0.00, 0.00, 0.00, 10:32:40.926
18, 11512.38, 0.00, 0.00, 0.00, -187500.02, -159036.17, -187500.02, -187500.02, 0.00, 0.00, 0.00, 10:32:40.929
19, 11850.09, 0.00, 0.00, 0.00, -187500.02, -159006.75, -187500.02, -187500.02, 0.04, -0.08, 1.03, 10:32:40.935
20, 12129.62, 0.00, 0.00, 0.00, -187500.02, -158970.73, -187500.02, -187500.02, 0.00, 0.00, 0.00, 10:32:40.939
21, 11900.27, 0.00, 0.00, 0.00, -187500.02, -159044.56, -187500.02, -187500.02, 0.00, 0.00, 0.00, 10:32:40.943
22, 11590.43, 0.00, 0.00, 0.00, -187500.02, -159136.81, -187500.02, -187500.02, 0.00, 0.00, 0.00, 10:32:40.946
23, 11790.88, 0.00, 0.00, 0.00, -187500.02, -159092.14, -187500.02, -187500.02, 0.00, 0.00, 0.00, 10:32:40.950
24, 12140.42, 0.00, 0.00, 0.00, -187500.02, -159022.27, -187500.02, -187500.02, 0.00, 0.00, 0.00, 10:32:40.954
25, 12028.93, 0.00, 0.00, 0.00, -187500.02, -159127.36, -187500.02, -187500.02, 0.00, 0.00, 0.00, 10:32:40.958
26, 11644.28, 0.00, 0.00, 0.00, -187500.02, -159236.66, -187500.02, -187500.02, 0.00, 0.00, 0.00, 10:32:40.962
27, 11737.04, 0.00, 0.00, 0.00, -187500.02, -159184.31, -187500.02, -187500.02, 0.00, 0.00, 0.00, 10:32:40.967
28, 12125.78, 0.00, 0.00, 0.00, -187500.02, -159138.27, -187500.02, -187500.02, 0.00, 0.00, 0.00, 10:32:40.970
29, 12056.37, 0.00, 0.00, 0.00, -187500.02, -159164.89, -187500.02, -187500.02, 0.04, -0.08, 1.01, 10:32:40.974
30, 11625.08, 0.00, 0.00, 0.00, -187500.02, -159243.92, -187500.02, -187500.02, 0.00, 0.00, 0.00, 10:32:40.978
31, 11625.75, 0.00, 0.00, 0.00, -187500.02, -159222.56, -187500.02, -187500.02, 0.00, 0.00, 0.00, 10:32:40.981
32, 12037.44, 0.00, 0.00, 0.00, -187500.02, -159141.83, -187500.02, -187500.02, 0.00, 0.00, 0.00, 10:32:40.986
33, 12115.00, 0.00, 0.00, 0.00, -187500.02, -159145.84, -187500.02, -187500.02, 0.00, 0.00, 0.00, 10:32:40.990
34, 11764.21, 0.00, 0.00, 0.00, -187500.02, -159274.19, -187500.02, -187500.02, 0.00, 0.00, 0.00, 10:32:40.995
35, 11683.90, 0.00, 0.00, 0.00, -187500.02, -159324.64, -187500.02, -187500.02, 0.00, 0.00, 0.00, 10:32:40.997
36, 12009.01, 0.00, 0.00, 0.00, -187500.02, -159278.59, -187500.02, -187500.02, 0.00, 0.00, 0.00, 10:32:41.002
37, 12141.27, 0.00, 0.00, 0.00, -187500.02, -159260.69, -187500.02, -187500.02, 0.00, 0.00, 0.00, 10:32:41.006
38, 11776.71, 0.00, 0.00, 0.00, -187500.02, -159332.38, -187500.02, -187500.02, 0.00, 0.00, 0.00, 10:32:41.010
39, 11575.43, 0.00, 0.00, 0.00, -187500.02, -159350.55, -187500.02, -187500.02, 0.03, -0.07, 1.03, 10:32:41.015
40, 11914.80, 0.00, 0.00, 0.00, -187500.02, -159281.52, -187500.02, -187500.02, 0.00, 0.00, 0.00, 10:32:41.018
41, 12145.16, 0.00, 0.00, 0.00, -187500.02, -159251.19, -187500.02, -187500.02, 0.00, 0.00, 0.00, 10:32:41.023
42, 11846.07, 0.00, 0.00, 0.00, -187500.02, -159308.64, -187500.02, -187500.02, 0.00, 0.00, 0.00, 10:32:41.025
43, 11576.24, 0.00, 0.00, 0.00, -187500.02, -159415.03, -187500.02, -187500.02, 0.00, 0.00, 0.00, 10:32:41.030
44, 11851.59, 0.00, 0.00, 0.00, -187500.02, -159386.81, -187500.02, -187500.02, 0.00, 0.00, 0.00, 10:32:41.034
45, 12156.49, 0.00, 0.00, 0.00, -187500.02, -159352.11, -187500.02, -187500.02, 0.00, 0.00, 0.00, 10:32:41.037
0, 0.00, 0.00, 0.00, 0.00, 0.00, 0.00, 0.00, 0.00, 0.01, -0.09, 1.04, 10:32:41.056
1, 9227.27, 0.00, 0.00, 0.00, 0.00, -150651.06, -187500.02, -185901.00, 0.00, 0.00, 0.00, 10:32:41.073
2, 9276.42, 0.00, 0.00, 0.00, 0.00, -150711.19, -187500.02, -185955.94, 0.00, 0.00, 0.00, 10:32:41.077
3, 9034.71, 0.00, 0.00, 0.00, 0.00, -150865.23, -187500.02, -186105.36, 0.00, 0.00, 0.00, 10:32:41.080
4, 9228.03, 0.00, 0.00, 0.00, 0.00, -150930.44, -187500.02, -186161.22, 0.00, 0.00, 0.00, 10:32:41.083
5, 9720.08, 0.00, 0.00, 0.00, 0.00, -150930.89, -187500.02, -186152.66, 0.00, 0.00, 0.00, 10:32:41.087
6, 9803.74, 0.00, 0.00, 0.00, 0.00, -150987.84, -187500.02, -186203.70, 0.01, -0.10, 1.03, 10:32:41.090
7, 9508.79, 0.00, 0.00, 0.00, 0.00, -151135.30, -187500.02, -186347.66, 0.00, 0.00, 0.00, 10:32:41.094
8, 9555.46, 0.00, 0.00, 0.00, 0.00, -151230.38, -187500.02, -186437.80, 0.00, 0.00, 0.00, 10:32:41.098
9, 10004.64, 0.00, 0.00, 0.00, 0.00, -151229.95, -187500.02, -186432.20, 0.00, 0.00, 0.00, 10:32:41.103
10, 10149.64, 0.00, 0.00, 0.00, 0.00, -151292.94, -187500.02, -186491.50, 0.00, 0.00, 0.00, 10:32:41.107
11, 9842.25, 0.00, 0.00, 0.00, 0.00, -151421.89, -187500.02, -186615.64, 0.00, 0.00, 0.00, 10:32:41.111
12, 9817.89, 0.00, 0.00, 0.00, 0.00, -151548.36, -187500.02, -186736.56, 0.00, 0.00, 0.00, 10:32:41.114
13, 10252.16, 0.00, 0.00, 0.00, 0.00, -151537.98, -187500.02, -186720.09, 0.00, 0.00, 0.00, 10:32:41.119
14, 10452.55, 0.00, 0.00, 0.00, 0.00, -151608.33, -187500.02, -186787.84, 0.00, 0.00, 0.00, 10:32:41.122
15, 10101.02, 0.00, 0.00, 0.00, 0.00, -151743.47, -187500.02, -186923.36, 0.00, 0.00, 0.00, 10:32:41.126
16, 9972.92, 0.00, 0.00, 0.00, 0.00, -151833.58, -187500.02, -187009.27, 0.02, -0.07, 1.02, 10:32:41.130
17, 10375.14, 0.00, 0.00, 0.00, 0.00, -151840.38, -187500.02, -187008.91, 0.00, 0.00, 0.00, 10:32:41.135
18, 10613.30, 0.00, 0.00, 0.00, 0.00, -151875.77, -187500.02, -187039.30, 0.00, 0.00, 0.00, 10:32:41.140
19, 10320.83, 0.00, 0.00, 0.00, 0.00, -151988.70, -187500.02, -187150.92, 0.00, 0.00, 0.00, 10:32:41.142
20, 10098.47, 0.00, 0.00, 0.00, 0.00, -152099.64, -187500.02, -187259.78, 0.00, 0.00, 0.00, 10:32:41.147
21, 10459.32, 0.00, 0.00, 0.00, 0.00, -152150.94, -187500.02, -187307.03, 0.00, 0.00, 0.00, 10:32:41.150
22, 10752.28, 0.00, 0.00, 0.00, 0.00, -152168.02, -187500.02, -187322.25, 0.00, 0.00, 0.00, 10:32:41.154
23, 10531.72, 0.00, 0.00, 0.00, 0.00, -152259.47, -187500.02, -187414.23, 0.00, 0.00, 0.00, 10:32:41.158
24, 10251.85, 0.00, 0.00, 0.00, 0.00, -152380.75, -187500.02, -187500.02, 0.00, 0.00, 0.00, 10:32:41.164
25, 10473.60, 0.00, 0.00, 0.00, 0.00, -152418.94, -187500.02, -187500.02, 0.00, 0.00, 0.00, 10:32:41.166
26, 10796.65, 0.00, 0.00, 0.00, 0.00, -152449.78, -187500.02, -187500.02, 0.04, -0.05, 1.02, 10:32:41.170
27, 10715.83, 0.00, 0.00, 0.00, 0.00, -152544.70, -187500.02, -187500.02, 0.00, 0.00, 0.00, 10:32:41.174
28, 10415.22, 0.00, 0.00, 0.00, 0.00, -152661.47, -187500.02, -187500.02, 0.00, 0.00, 0.00, 10:32:41.178
29, 10477.11, 0.00, 0.00, 0.00, 0.00, -152681.88, -187500.02, -187500.02, 0.00, 0.00, 0.00, 10:32:41.192
30, 10783.51, 0.00, 0.00, 0.00, 0.00, -152687.48, -187500.02, -187500.02, 0.00, 0.00, 0.00, 10:32:41.192
31, 10752.11, 0.00, 0.00, 0.00, 0.00, -152726.20, -187500.02, -187500.02, 0.00, 0.00, 0.00, 10:32:41.192
32, 10439.29, 0.00, 0.00, 0.00, 0.00, -152795.48, -187500.02, -187500.02, 0.00, 0.00, 0.00, 10:32:41.195
33, 10415.93, 0.00, 0.00, 0.00, 0.00, -152811.27, -187500.02, -187500.02, 0.00, 0.00, 0.00, 10:32:41.197
34, 10660.80, 0.00, 0.00, 0.00, 0.00, -152771.39, -187500.02, -187500.02, 0.00, 0.00, 0.00, 10:32:41.202
35, 10739.48, 0.00, 0.00, 0.00, 0.00, -152799.63, -187500.02, -187500.02, 0.00, 0.00, 0.00, 10:32:41.206
36, 10512.29, 0.00, 0.00, 0.00, 0.00, -152915.13, -187500.02, -187500.02, 0.06, -0.11, 0.99, 10:32:41.211
37, 10435.29, 0.00, 0.00, 0.00, 0.00, -152992.41, -187500.02, -187500.02, 0.00, 0.00, 0.00, 10:32:41.214
38, 10688.40, 0.00, 0.00, 0.00, 0.00, -153002.14, -187500.02, -187500.02, 0.00, 0.00, 0.00, 10:32:41.218
39, 10765.85, 0.00, 0.00, 0.00, 0.00, -153004.23, -187500.02, -187500.02, 0.00, 0.00, 0.00, 10:32:41.222
40, 10510.91, 0.00, 0.00, 0.00, 0.00, -153060.88, -187500.02, -187500.02, 0.00, 0.00, 0.00, 10:32:41.225
41, 10370.72, 0.00, 0.00, 0.00, 0.00, -153117.77, -187500.02, -187500.02, 0.00, 0.00, 0.00, 10:32:41.231
42, 10598.41, 0.00, 0.00, 0.00, 0.00, -153089.66, -187500.02, -187500.02, 0.00, 0.00, 0.00, 10:32:41.234
43, 10773.74, 0.00, 0.00, 0.00, 0.00, -153072.03, -187500.02, -187500.02, 0.00, 0.00, 0.00, 10:32:41.238
44, 10606.62, 0.00, 0.00, 0.00, 0.00, -153131.73, -187500.02, -187500.02, 0.00, 0.00, 0.00, 10:32:41.243
45, 10410.39, 0.00, 0.00, 0.00, 0.00, -153231.19, -187500.02, -187500.02, 0.03, -0.12, 1.00, 10:32:41.246
46, 10561.56, 0.00, 0.00, 0.00, 0.00, -153218.34, -187500.02, -187500.02, 0.00, 0.00, 0.00, 10:32:41.250
47, 10753.56, 0.00, 0.00, 0.00, 0.00, -153172.72, -187500.02, -187500.02, 0.00, 0.00, 0.00, 10:32:41.254
48, 10639.81, 0.00, 0.00, 0.00, 0.00, -153214.75, -187500.02, -187500.02, 0.00, 0.00, 0.00, 10:32:41.258
49, 10402.41, 0.00, 0.00, 0.00, 0.00, -153297.22, -187500.02, -187500.02, 0.00, 0.00, 0.00, 10:32:41.262
50, 10489.09, 0.00, 0.00, 0.00, 0.00, -153323.84, -187500.02, -187500.02, 0.00, 0.00, 0.00, 10:32:41.267
51, 10725.06, 0.00, 0.00, 0.00, 0.00, -153280.03, -187500.02, -187500.02, 0.00, 0.00, 0.00, 10:32:41.270
52, 10747.21, 0.00, 0.00, 0.00, 0.00, -153356.03, -187500.02, -187500.02, 0.00, 0.00, 0.00, 10:32:41.273
53, 10517.41, 0.00, 0.00, 0.00, 0.00, -153475.05, -187500.02, -187500.02, 0.00, 0.00, 0.00, 10:32:41.278
54, 10497.76, 0.00, 0.00, 0.00, 0.00, -153542.84, -187500.02, -187500.02, 0.00, 0.00, 0.00, 10:32:41.282
0, 0.00, 0.00, 0.00, 0.00, 0.00, 0.00, 0.00, 0.00, 0.00, 0.00, 0.00, 10:32:41.299
1, 9112.92, 0.00, 0.00, 0.00, 0.00, 0.00, -187500.02, -184386.81, 0.00, 0.00, 0.00, 10:32:41.316
2, 9351.77, 0.00, 0.00, 0.00, 0.00, 0.00, -187500.02, -184370.73, 0.00, 0.00, 0.00, 10:32:41.319
3, 9531.83, 0.00, 0.00, 0.00, 0.00, 0.00, -187500.02, -184402.13, 0.00, 0.00, 0.00, 10:32:41.323
4, 9368.08, 0.00, 0.00, 0.00, 0.00, 0.00, -187500.02, -184484.00, 0.08, -0.06, 1.08, 10:32:41.326
5, 9218.71, 0.00, 0.00, 0.00, 0.00, 0.00, -187500.02, -184585.55, 0.00, 0.00, 0.00, 10:32:41.330
6, 9395.35, 0.00, 0.00, 0.00, 0.00, 0.00, -187500.02, -184589.63, 0.00, 0.00, 0.00, 10:32:41.334
7, 9602.04, 0.00, 0.00, 0.00, 0.00, 0.00, -187500.02, -184623.50, 0.00, 0.00, 0.00, 10:32:41.339
8, 9483.51, 0.00, 0.00, 0.00, 0.00, 0.00, -187500.02, -184714.52, 0.00, 0.00, 0.00, 10:32:41.344
9, 9282.41, 0.00, 0.00, 0.00, 0.00, 0.00, -187500.02, -184823.44, 0.00, 0.00, 0.00, 10:32:41.346
10, 9427.74, 0.00, 0.00, 0.00, 0.00, 0.00, -187500.02, -184863.16, 0.00, 0.00, 0.00, 10:32:41.350
11, 9648.31, 0.00, 0.00, 0.00, 0.00, 0.00, -187500.02, -184874.84, 0.00, 0.00, 0.00, 10:32:41.354
12, 9585.57, 0.00, 0.00, 0.00, 0.00, 0.00, -187500.02, -184943.11, 0.00, 0.00, 0.00, 10:32:41.358
13, 9363.93, 0.00, 0.00, 0.00, 0.00, 0.00, -187500.02, -185058.61, 0.00, 0.00, 0.00, 10:32:41.363
14, 9378.48, 0.00, 0.00, 0.00, 0.00, 0.00, -187500.02, -185113.14, 0.04, -0.08, 1.02, 10:32:41.366
15, 9608.81, 0.00, 0.00, 0.00, 0.00, 0.00, -187500.02, -185117.16, 0.00, 0.00, 0.00, 10:32:41.370
16, 9662.12, 0.00, 0.00, 0.00, 0.00, 0.00, -187500.02, -185185.53, 0.00, 0.00, 0.00, 10:32:41.374
17, 9419.14, 0.00, 0.00, 0.00, 0.00, 0.00, -187500.02, -185256.55, 0.00, 0.00, 0.00, 10:32:41.379
18, 9314.78, 0.00, 0.00, 0.00, 0.00, 0.00, -187500.02, -185317.92, 0.00, 0.00, 0.00, 10:32:41.382
19, 9478.79, 0.00, 0.00, 0.00, 0.00, 0.00, -187500.02, -185306.95, 0.00, 0.00, 0.00, 10:32:41.386
20, 9571.42, 0.00, 0.00, 0.00, 0.00, 0.00, -187500.02, -185287.42, 0.00, 0.00, 0.00, 10:32:41.391
21, 9381.23, 0.00, 0.00, 0.00, 0.00, 0.00, -187500.02, -185328.61, 0.00, 0.00, 0.00, 10:32:41.394
22, 9191.01, 0.00, 0.00, 0.00, 0.00, 0.00, -187500.02, -185408.25, 0.00, 0.00, 0.00, 10:32:41.398
23, 9312.92, 0.00, 0.00, 0.00, 0.00, 0.00, -187500.02, -185362.14, 0.03, -0.10, 0.98, 10:32:41.402
24, 9537.91, 0.00, 0.00, 0.00, 0.00, 0.00, -187500.02, -185347.05, 0.00, 0.00, 0.00, 10:32:41.406
25, 9446.03, 0.00, 0.00, 0.00, 0.00, 0.00, -187500.02, -185451.13, 0.00, 0.00, 0.00, 10:32:41.411
26, 9246.09, 0.00, 0.00, 0.00, 0.00, 0.00, -187500.02, -185541.80, 0.00, 0.00, 0.00, 10:32:41.415
27, 9456.40, 0.00, 0.00, 0.00, 0.00, 0.00, -187500.02, -185513.92, 0.00, 0.00, 0.00, 10:32:41.417
28, 9609.55, 0.00, 0.00, 0.00, 0.00, 0.00, -187500.02, -185481.94, 0.00, 0.00, 0.00, 10:32:41.423
29, 9324.16, 0.00, 0.00, 0.00, 0.00, 0.00, -187500.02, -185560.98, 0.00, 0.00, 0.00, 10:32:41.427
30, 9138.42, 0.00, 0.00, 0.00, 0.00, 0.00, -187500.02, -185646.91, 0.00, 0.00, 0.00, 10:32:41.430
31, 9431.18, 0.00, 0.00, 0.00, 0.00, 0.00, -187500.02, -185568.73, 0.00, 0.00, 0.00, 10:32:41.435
32, 9644.17, 0.00, 0.00, 0.00, 0.00, 0.00, -187500.02, -185522.72, 0.00, 0.00, 0.00, 10:32:41.438
33, 9374.57, 0.00, 0.00, 0.00, 0.00, 0.00, -187500.02, -185675.11, 0.05, -0.06, 0.98, 10:32:41.442
34, 9128.00, 0.00, 0.00, 0.00, 0.00, 0.00, -187500.02, -185796.45, 0.00, 0.00, 0.00, 10:32:41.446
35, 9409.44, 0.00, 0.00, 0.00, 0.00, 0.00, -187500.02, -185730.56, 0.00, 0.00, 0.00, 10:32:41.450
36, 9630.58, 0.00, 0.00, 0.00, 0.00, 0.00, -187500.02, -185691.47, 0.00, 0.00, 0.00, 10:32:41.454
37, 9312.99, 0.00, 0.00, 0.00, 0.00, 0.00, -187500.02, -185771.69, 0.00, 0.00, 0.00, 10:32:41.459
38, 8996.91, 0.00, 0.00, 0.00, 0.00, 0.00, -187500.02, -185845.94, 0.00, 0.00, 0.00, 10:32:41.462
39, 9315.40, 0.00, 0.00, 0.00, 0.00, 0.00, -187500.02, -185807.27, 0.00, 0.00, 0.00, 10:32:41.467
40, 9629.62, 0.00, 0.00, 0.00, 0.00, 0.00, -187500.02, -185766.64, 0.00, 0.00, 0.00, 10:32:41.470
41, 9341.11, 0.00, 0.00, 0.00, 0.00, 0.00, -187500.02, -185859.64, 0.00, 0.00, 0.00, 10:32:41.473
42, 8975.21, 0.00, 0.00, 0.00, 0.00, 0.00, -187500.02, -186017.95, 0.00, 0.00, 0.00, 10:32:41.479
43, 9265.02, 0.00, 0.00, 0.00, 0.00, 0.00, -187500.02, -185966.31, 0.04, -0.02, 1.00, 10:32:41.483
44, 9649.25, 0.00, 0.00, 0.00, 0.00, 0.00, -187500.02, -185899.77, 0.00, 0.00, 0.00, 10:32:41.486
45, 9360.60, 0.00, 0.00, 0.00, 0.00, 0.00, -187500.02, -185978.72, 0.00, 0.00, 0.00, 10:32:41.490
46, 8874.85, 0.00, 0.00, 0.00, 0.00, 0.00, -187500.02, -186120.75, 0.00, 0.00, 0.00, 10:32:41.494
47, 9110.59, 0.00, 0.00, 0.00, 0.00, 0.00, -187500.02, -186067.58, 0.00, 0.00, 0.00, 10:32:41.498
48, 9612.39, 0.00, 0.00, 0.00, 0.00, 0.00, -187500.02, -185965.20, 0.00, 0.00, 0.00, 10:32:41.501
49, 9440.37, 0.00, 0.00, 0.00, 0.00, 0.00, -187500.02, -186067.16, 0.00, 0.00, 0.00, 10:32:41.506
50, 8885.24, 0.00, 0.00, 0.00, 0.00, 0.00, -187500.02, -186258.73, 0.00, 0.00, 0.00, 10:32:41.511
51, 9010.23, 0.00, 0.00, 0.00, 0.00, 0.00, -187500.02, -186267.20, 0.00, 0.00, 0.00, 10:32:41.515
52, 9558.19, 0.00, 0.00, 0.00, 0.00, 0.00, -187500.02, -186169.11, 0.00, 0.00, 0.00, 10:32:41.518
53, 9446.92, 0.00, 0.00, 0.00, 0.00, 0.00, -187500.02, -186186.14, 0.01, -0.10, 0.96, 10:32:41.522
54, 8846.91, 0.00, 0.00, 0.00, 0.00, 0.00, -187500.02, -186332.72, 0.00, 0.00, 0.00, 10:32:41.526
55, 8828.40, 0.00, 0.00, 0.00, 0.00, 0.00, -187500.02, -186350.48, 0.00, 0.00, 0.00, 10:32:41.529
56, 9399.98, 0.00, 0.00, 0.00, 0.00, 0.00, -187500.02, -186217.27, 0.00, 0.00, 0.00, 10:32:41.533
57, 9499.85, 0.00, 0.00, 0.00, 0.00, 0.00, -187500.02, -186253.91, 0.00, 0.00, 0.00, 10:32:41.539
58, 8971.77, 0.00, 0.00, 0.00, 0.00, 0.00, -187500.02, -186449.17, 0.00, 0.00, 0.00, 10:32:41.543
59, 8794.54, 0.00, 0.00, 0.00, 0.00, 0.00, -187500.02, -186522.03, 0.00, 0.00, 0.00, 10:32:41.545
60, 9313.03, 0.00, 0.00, 0.00, 0.00, 0.00, -187500.02, -186434.27, 0.00, 0.00, 0.00, 10:32:41.549
61, 9495.29, 0.00, 0.00, 0.00, 0.00, 0.00, -187500.02, -186397.22, 0.00, 0.00, 0.00, 10:32:41.554
62, 9000.80, 0.00, 0.00, 0.00, 0.00, 0.00, -187500.02, -186518.73, 0.00, 0.00, 0.00, 10:32:41.558
63, 8688.01, 0.00, 0.00, 0.00, 0.00, 0.00, -187500.02, -186599.86, -0.02, -0.04, 1.00, 10:32:41.561
64, 9136.34, 0.00, 0.00, 0.00, 0.00, 0.00, -187500.02, -186493.14, 0.00, 0.00, 0.00, 10:32:41.566
0, 0.00, 0.00, 0.00, 0.00, 0.00, 0.00, 0.00, 0.00, 0.00, 0.00, 0.00, 10:32:41.583
1, 5221.79, 0.00, 0.00, 0.00, 0.00, 0.00, 0.00, -165172.70, 0.01, -0.05, 1.03, 10:32:41.601
2, 5840.87, 0.00, 0.00, 0.00, 0.00, 0.00, 0.00, -165032.22, 0.00, 0.00, 0.00, 10:32:41.604
3, 5705.82, 0.00, 0.00, 0.00, 0.00, 0.00, 0.00, -165145.91, 0.00, 0.00, 0.00, 10:32:41.607
4, 5344.21, 0.00, 0.00, 0.00, 0.00, 0.00, 0.00, -165332.14, 0.00, 0.00, 0.00, 10:32:41.611
5, 5728.22, 0.00, 0.00, 0.00, 0.00, 0.00, 0.00, -165264.81, 0.00, 0.00, 0.00, 10:32:41.615
6, 6393.78, 0.00, 0.00, 0.00, 0.00, 0.00, 0.00, -165115.33, 0.00, 0.00, 0.00, 10:32:41.618
7, 6324.34, 0.00, 0.00, 0.00, 0.00, 0.00, 0.00, -165181.44, 0.00, 0.00, 0.00, 10:32:41.622
8, 5860.23, 0.00, 0.00, 0.00, 0.00, 0.00, 0.00, -165417.47, 0.00, 0.00, 0.00, 10:32:41.627
9, 6057.19, 0.00, 0.00, 0.00, 0.00, 0.00, 0.00, -165391.48, 0.00, 0.00, 0.00, 10:32:41.630
10, 6747.95, 0.00, 0.00, 0.00, 0.00, 0.00, 0.00, -165248.44, 0.00, 0.00, 0.00, 10:32:41.633
11, 6775.69, 0.00, 0.00, 0.00, 0.00, 0.00, 0.00, -165272.86, -0.00, -0.07, 1.00, 10:32:41.639
12, 6239.06, 0.00, 0.00, 0.00, 0.00, 0.00, 0.00, -165488.78, 0.00, 0.00, 0.00, 10:32:41.643
13, 6246.82, 0.00, 0.00, 0.00, 0.00, 0.00, 0.00, -165544.53, 0.00, 0.00, 0.00, 10:32:41.646
14, 6920.86, 0.00, 0.00, 0.00, 0.00, 0.00, 0.00, -165424.41, 0.00, 0.00, 0.00, 10:32:41.651
15, 7096.52, 0.00, 0.00, 0.00, 0.00, 0.00, 0.00, -165435.17, 0.00, 0.00, 0.00, 10:32:41.655
16, 6586.46, 0.00, 0.00, 0.00, 0.00, 0.00, 0.00, -165654.52, 0.00, 0.00, 0.00, 10:32:41.657
17, 6448.68, 0.00, 0.00, 0.00, 0.00, 0.00, 0.00, -165771.63, 0.00, 0.00, 0.00, 10:32:41.662
18, 7076.32, 0.00, 0.00, 0.00, 0.00, 0.00, 0.00, -165650.61, 0.00, 0.00, 0.00, 10:32:41.666
19, 7372.92, 0.00, 0.00, 0.00, 0.00, 0.00, 0.00, -165610.06, 0.00, 0.00, 0.00, 10:32:41.671
20, 6926.16, 0.00, 0.00, 0.00, 0.00, 0.00, 0.00, -165797.50, 0.00, 0.00, 0.00, 10:32:41.675
21, 6594.28, 0.00, 0.00, 0.00, 0.00, 0.00, 0.00, -165967.33, 0.01, -0.05, 0.99, 10:32:41.678
22, 7124.24, 0.00, 0.00, 0.00, 0.00, 0.00, 0.00, -165869.05, 0.00, 0.00, 0.00, 10:32:41.682
23, 7538.62, 0.00, 0.00, 0.00, 0.00, 0.00, 0.00, -165776.83, 0.00, 0.00, 0.00, 10:32:41.686
24, 7156.69, 0.00, 0.00, 0.00, 0.00, 0.00, 0.00, -165925.11, 0.00, 0.00, 0.00, 10:32:41.690
25, 6735.05, 0.00, 0.00, 0.00, 0.00, 0.00, 0.00, -166122.47, 0.00, 0.00, 0.00, 10:32:41.694
26, 7151.87, 0.00, 0.00, 0.00, 0.00, 0.00, 0.00, -166046.80, 0.00, 0.00, 0.00, 10:32:41.699
27, 7662.80, 0.00, 0.00, 0.00, 0.00, 0.00, 0.00, -165926.06, 0.00, 0.00, 0.00, 10:32:41.702
28, 7382.02, 0.00, 0.00, 0.00, 0.00, 0.00, 0.00, -166071.94, 0.00, 0.00, 0.00, 10:32:41.707
29, 6879.98, 0.00, 0.00, 0.00, 0.00, 0.00, 0.00, -166293.08, 0.00, 0.00, 0.00, 10:32:41.709
30, 7184.12, 0.00, 0.00, 0.00, 0.00, 0.00, 0.00, -166252.73, 0.00, 0.00, 0.00, 10:32:41.714
31, 7807.15, 0.00, 0.00, 0.00, 0.00, 0.00, 0.00, -166139.17, 0.01, -0.01, 1.01, 10:32:41.718
32, 7638.28, 0.00, 0.00, 0.00, 0.00, 0.00, 0.00, -166225.09, 0.00, 0.00, 0.00, 10:32:41.721
33, 7010.49, 0.00, 0.00, 0.00, 0.00, 0.00, 0.00, -166486.67, 0.00, 0.00, 0.00, 10:32:41.727
34, 7179.96, 0.00, 0.00, 0.00, 0.00, 0.00, 0.00, -166486.53, 0.00, 0.00, 0.00, 10:32:41.731
35, 7998.68, 0.00, 0.00, 0.00, 0.00, 0.00, 0.00, -166259.41, 0.00, 0.00, 0.00, 10:32:41.735
36, 8000.67, 0.00, 0.00, 0.00, 0.00, 0.00, 0.00, -166297.89, 0.00, 0.00, 0.00, 10:32:41.738
37, 7217.78, 0.00, 0.00, 0.00, 0.00, 0.00, 0.00, -166614.08, 0.00, 0.00, 0.00, 10:32:41.742
38, 7170.44, 0.00, 0.00, 0.00, 0.00, 0.00, 0.00, -166681.42, 0.00, 0.00, 0.00, 10:32:41.745
39, 8049.18, 0.00, 0.00, 0.00, 0.00, 0.00, 0.00, -166437.55, 0.00, 0.00, 0.00, 10:32:41.750
40, 8228.66, 0.00, 0.00, 0.00, 0.00, 0.00, 0.00, -166416.91, 0.01, -0.04, 1.01, 10:32:41.755
41, 7452.32, 0.00, 0.00, 0.00, 0.00, 0.00, 0.00, -166727.72, 0.00, 0.00, 0.00, 10:32:41.759
42, 7180.48, 0.00, 0.00, 0.00, 0.00, 0.00, 0.00, -166861.59, 0.00, 0.00, 0.00, 10:32:41.762
43, 8041.49, 0.00, 0.00, 0.00, 0.00, 0.00, 0.00, -166651.00, 0.00, 0.00, 0.00, 10:32:41.766
44, 8469.05, 0.00, 0.00, 0.00, 0.00, 0.00, 0.00, -166590.31, 0.00, 0.00, 0.00, 10:32:41.770
45, 7755.25, 0.00, 0.00, 0.00, 0.00, 0.00, 0.00, -166883.34, 0.00, 0.00, 0.00, 10:32:41.774
46, 7246.90, 0.00, 0.00, 0.00, 0.00, 0.00, 0.00, -167090.28, 0.00, 0.00, 0.00, 10:32:41.777
47, 7982.43, 0.00, 0.00, 0.00, 0.00, 0.00, 0.00, -166897.72, 0.00, 0.00, 0.00, 10:32:41.782
48, 8550.41, 0.00, 0.00, 0.00, 0.00, 0.00, 0.00, -166789.42, 0.00, 0.00, 0.00, 10:32:41.787
49, 7880.35, 0.00, 0.00, 0.00, 0.00, 0.00, 0.00, -167061.67, 0.00, 0.00, 0.00, 10:32:41.790
50, 7195.92, 0.00, 0.00, 0.00, 0.00, 0.00, 0.00, -167337.94, 0.01, -0.06, 1.00, 10:32:41.794
51, 7839.87, 0.00, 0.00, 0.00, 0.00, 0.00, 0.00, -167171.27, 0.00, 0.00, 0.00, 10:32:41.798
52, 8627.15, 0.00, 0.00, 0.00, 0.00, 0.00, 0.00, -166950.89, 0.00, 0.00, 0.00, 10:32:41.802
53, 8153.29, 0.00, 0.00, 0.00, 0.00, 0.00, 0.00, -167136.22, 0.00, 0.00, 0.00, 10:32:41.805
